Distance_Error(mm),Direction_Error(deg),ref_display_position_x,ref_display_position_y,ref_display_position_z,second_display_position_x,second_display_position_y,second_display_position_z,Cost,feasible
514.7,10.126,-633.98,-491.48,77.057,-800,-800,-300,-685.98,1
446.66,8.4961,-633.98,-491.48,77.057,-800,-800,-200,-745.03,1
392.55,8.2283,-633.98,-491.48,77.057,-800,-800,-100,-808.48,1
358.72,9.8527,-633.98,-491.48,77.057,-800,-800,0,-869.23,1
351.1,13.002,-633.98,-491.48,77.057,-800,-800,100,-910.25,1
371.3,17.1,-633.98,-491.48,77.057,-800,-800,200,-901.48,1
415.27,21.792,-633.98,-491.48,77.057,-800,-800,300,-812.92,1
472.49,9.3166,-633.98,-491.48,77.057,-800,-722.81,-300,-626.09,1
397.29,6.6761,-633.98,-491.48,77.057,-800,-722.81,-200,-680.02,1
335.3,5.2837,-633.98,-491.48,77.057,-800,-722.81,-100,-739.11,1
294.98,6.7606,-633.98,-491.48,77.057,-800,-722.81,0,-797.78,1
285.66,10.389,-633.98,-491.48,77.057,-800,-722.81,100,-841.06,1
310.15,14.997,-633.98,-491.48,77.057,-800,-722.81,200,-840.26,1
361.63,20.15,-633.98,-491.48,77.057,-800,-722.81,300,-764.07,1
439.88,9.4293,-633.98,-491.48,77.057,-800,-645.63,-300,-573.72,1
357.89,5.9507,-633.98,-491.48,77.057,-800,-645.63,-200,-622.74,1
287.53,2.6339,-633.98,-491.48,77.057,-800,-645.63,-100,-677.39,1
239.29,3.6338,-633.98,-491.48,77.057,-800,-645.63,0,-733.39,1
227.7,8.0916,-633.98,-491.48,77.057,-800,-645.63,100,-777.86,1
257.75,13.256,-633.98,-491.48,77.057,-800,-645.63,200,-783.83,1
317.85,18.845,-633.98,-491.48,77.057,-800,-645.63,300,-719.11,1
419.11,10.586,-633.98,-491.48,77.057,-800,-568.44,-300,-529.43,1
332.03,6.967,-633.98,-491.48,77.057,-800,-568.44,-200,-573.95,1
254.62,3.049,-633.98,-491.48,77.057,-800,-568.44,-100,-624.26,1
198.55,2.1951,-633.98,-491.48,77.057,-800,-568.44,0,-677.2,1
184.42,6.8998,-633.98,-491.48,77.057,-800,-568.44,100,-721.78,1
220.45,12.302,-633.98,-491.48,77.057,-800,-568.44,200,-732.99,1
288.42,18.142,-633.98,-491.48,77.057,-800,-568.44,300,-678.33,1
411.99,12.625,-633.98,-491.48,77.057,-800,-491.25,-300,-493.53,1
322.99,9.3736,-633.98,-491.48,77.057,-800,-491.25,-200,-534.08,1
242.72,6.3045,-633.98,-491.48,77.057,-800,-491.25,-100,-580.39,1
183.03,5.1189,-633.98,-491.48,77.057,-800,-491.25,0,-630.09,1
167.59,7.8027,-633.98,-491.48,77.057,-800,-491.25,100,-673.83,1
206.58,12.614,-633.98,-491.48,77.057,-800,-491.25,200,-688.57,1
277.97,18.329,-633.98,-491.48,77.057,-800,-491.25,300,-642.06,1
419.2,15.293,-633.98,-491.48,77.057,-800,-414.06,-300,-466.17,1
332.14,12.535,-633.98,-491.48,77.057,-800,-414.06,-200,-503.37,1
254.76,10.146,-633.98,-491.48,77.057,-800,-414.06,-100,-546.14,1
198.73,9.114,-633.98,-491.48,77.057,-800,-414.06,0,-592.67,1
184.61,10.587,-633.98,-491.48,77.057,-800,-414.06,100,-634.82,1
220.61,14.381,-633.98,-491.48,77.057,-800,-414.06,200,-651.27,1
288.55,19.601,-633.98,-491.48,77.057,-800,-414.06,300,-610.62,1
440.04,18.384,-633.98,-491.48,77.057,-800,-336.88,-300,-447.34,1
358.09,16.109,-633.98,-491.48,77.057,-800,-336.88,-200,-481.85,1
287.77,14.25,-633.98,-491.48,77.057,-800,-336.88,-100,-521.65,1
239.59,13.44,-633.98,-491.48,77.057,-800,-336.88,0,-565.24,1
228.02,14.41,-633.98,-491.48,77.057,-800,-336.88,100,-605.24,1
258.03,17.379,-633.98,-491.48,77.057,-800,-336.88,200,-621.61,1
318.07,21.962,-633.98,-491.48,77.057,-800,-336.88,300,-584.24,1
472.72,21.757,-633.98,-491.48,77.057,-800,-259.69,-300,-436.97,0
397.56,19.936,-633.98,-491.48,77.057,-800,-259.69,-200,-469.46,1
335.62,18.527,-633.98,-491.48,77.057,-800,-259.69,-100,-506.91,1
295.34,17.974,-633.98,-491.48,77.057,-800,-259.69,0,-547.87,1
286.04,18.781,-633.98,-491.48,77.057,-800,-259.69,100,-585.23,1
310.49,21.237,-633.98,-491.48,77.057,-800,-259.69,200,-599.73,1
361.93,25.247,-633.98,-491.48,77.057,-800,-259.69,300,-562.91,1
514.98,25.317,-633.98,-491.48,77.057,-800,-182.5,-300,-435,0
446.98,23.918,-633.98,-491.48,77.057,-800,-182.5,-200,-466.08,0
392.91,22.917,-633.98,-491.48,77.057,-800,-182.5,-100,-501.75,1
359.12,22.642,-633.98,-491.48,77.057,-800,-182.5,0,-540.36,1
351.51,23.462,-633.98,-491.48,77.057,-800,-182.5,100,-574.57,1
371.68,25.645,-633.98,-491.48,77.057,-800,-182.5,200,-585.34,1
415.61,29.223,-633.98,-491.48,77.057,-800,-182.5,300,-546.35,1
491.64,13.818,-633.98,-491.48,77.057,-700,-800,-300,-645.34,1
419.88,12.19,-633.98,-491.48,77.057,-700,-800,-200,-705.66,1
361.79,11.479,-633.98,-491.48,77.057,-700,-800,-100,-776.17,1
324.78,12.235,-633.98,-491.48,77.057,-700,-800,0,-854.6,1
316.34,14.588,-633.98,-491.48,77.057,-700,-800,100,-929.25,1
338.61,18.222,-633.98,-491.48,77.057,-700,-800,200,-967.57,1
386.32,22.746,-633.98,-491.48,77.057,-700,-800,300,-913.47,1
447.26,12.962,-633.98,-491.48,77.057,-700,-722.81,-300,-579.63,1
366.92,10.525,-633.98,-491.48,77.057,-700,-722.81,-200,-632.57,1
298.7,8.8446,-633.98,-491.48,77.057,-700,-722.81,-100,-695.39,1
252.61,8.975,-633.98,-491.48,77.057,-700,-722.81,0,-767.23,1
241.66,11.394,-633.98,-491.48,77.057,-700,-722.81,100,-839.4,1
270.16,15.462,-633.98,-491.48,77.057,-700,-722.81,200,-883.54,1
327.99,20.512,-633.98,-491.48,77.057,-700,-722.81,300,-844.8,1
412.66,12.787,-633.98,-491.48,77.057,-700,-645.63,-300,-522.71,1
323.85,9.582,-633.98,-491.48,77.057,-700,-645.63,-200,-568.91,1
243.86,6.597,-633.98,-491.48,77.057,-700,-645.63,-100,-624.39,1
184.54,5.4586,-633.98,-491.48,77.057,-700,-645.63,0,-689.41,1
169.25,8.0203,-633.98,-491.48,77.057,-700,-645.63,100,-757.96,1
207.93,12.747,-633.98,-491.48,77.057,-700,-645.63,200,-806.13,1
278.97,18.424,-633.98,-491.48,77.057,-700,-645.63,300,-781.42,1
390.45,13.457,-633.98,-491.48,77.057,-700,-568.44,-300,-475.05,1
295.03,9.8088,-633.98,-491.48,77.057,-700,-568.44,-200,-515.34,1
204.03,5.7522,-633.98,-491.48,77.057,-700,-568.44,-100,-564.16,1
127.35,1.9392,-633.98,-491.48,77.057,-700,-568.44,0,-622.51,1
103.96,4.8475,-633.98,-491.48,77.057,-700,-568.44,100,-686.59,1
159.36,10.493,-633.98,-491.48,77.057,-700,-568.44,200,-736.79,1
244.92,16.787,-633.98,-491.48,77.057,-700,-568.44,300,-723.96,1
382.79,14.987,-633.98,-491.48,77.057,-700,-491.25,-300,-436.81,1
284.81,11.346,-633.98,-491.48,77.057,-700,-491.25,-200,-472.14,1
188.96,7.2677,-633.98,-491.48,77.057,-700,-491.25,-100,-515.2,1
101.47,3.0947,-633.98,-491.48,77.057,-700,-491.25,0,-567.41,1
69.89,3.9649,-633.98,-491.48,77.057,-700,-491.25,100,-626.63,1
139.55,9.5621,-633.98,-491.48,77.057,-700,-491.25,200,-677,1
232.51,16.068,-633.98,-491.48,77.057,-700,-491.25,300,-673.23,1
390.54,17.252,-633.98,-491.48,77.057,-700,-414.06,-300,-407.91,1
295.15,13.931,-633.98,-491.48,77.057,-700,-414.06,-200,-439.25,1
204.21,10.426,-633.98,-491.48,77.057,-700,-414.06,-100,-477.57,1
127.63,7.4003,-633.98,-491.48,77.057,-700,-414.06,0,-524.49,1
104.3,7.0822,-633.98,-491.48,77.057,-700,-414.06,100,-578.94,1
159.58,10.828,-633.98,-491.48,77.057,-700,-414.06,200,-627.95,1
245.06,16.751,-633.98,-491.48,77.057,-700,-414.06,300,-630.07,1
412.84,20.081,-633.98,-491.48,77.057,-700,-336.88,-300,-388.13,0
324.07,17.215,-633.98,-491.48,77.057,-700,-336.88,-200,-416.44,1
244.15,14.362,-633.98,-491.48,77.057,-700,-336.88,-100,-451.09,1
184.93,12.105,-633.98,-491.48,77.057,-700,-336.88,0,-493.74,1
169.67,11.659,-633.98,-491.48,77.057,-700,-336.88,100,-543.9,1
208.27,14.092,-633.98,-491.48,77.057,-700,-336.88,200,-590.48,1
279.22,19.02,-633.98,-491.48,77.057,-700,-336.88,300,-595.15,1
447.5,23.317,-633.98,-491.48,77.057,-700,-259.69,-300,-377.25,0
367.22,20.947,-633.98,-491.48,77.057,-700,-259.69,-200,-403.41,0
299.06,18.706,-633.98,-491.48,77.057,-700,-259.69,-100,-435.44,1
253.03,17.054,-633.98,-491.48,77.057,-700,-259.69,0,-474.92,1
242.1,16.76,-633.98,-491.48,77.057,-700,-259.69,100,-521.5,1
270.56,18.584,-633.98,-491.48,77.057,-700,-259.69,200,-564.87,1
328.31,22.657,-633.98,-491.48,77.057,-700,-259.69,300,-568.75,1
491.93,26.834,-633.98,-491.48,77.057,-700,-182.5,-300,-375.1,0
420.22,24.96,-633.98,-491.48,77.057,-700,-182.5,-200,-399.94,0
362.18,23.285,-633.98,-491.48,77.057,-700,-182.5,-100,-430.35,0
325.22,22.168,-633.98,-491.48,77.057,-700,-182.5,0,-467.74,1
316.79,22.139,-633.98,-491.48,77.057,-700,-182.5,100,-511.46,1
339.03,23.753,-633.98,-491.48,77.057,-700,-182.5,200,-550.88,1
386.69,27.266,-633.98,-491.48,77.057,-700,-182.5,300,-550.55,1
488.38,17.831,-633.98,-491.48,77.057,-600,-800,-300,-606.84,1
416.05,16.289,-633.98,-491.48,77.057,-600,-800,-200,-664.89,1
357.33,15.412,-633.98,-491.48,77.057,-600,-800,-100,-736.9,1
319.81,15.647,-633.98,-491.48,77.057,-600,-800,0,-825.67,1
311.23,17.307,-633.98,-491.48,77.057,-600,-800,100,-928.74,1
333.85,20.369,-633.98,-491.48,77.057,-600,-800,200,-1023.3,1
382.15,24.571,-633.98,-491.48,77.057,-600,-800,300,-1037.4,1
443.67,17,-633.98,-491.48,77.057,-600,-722.81,-300,-536.57,1
362.53,14.775,-633.98,-491.48,77.057,-600,-722.81,-200,-585.26,1
293.29,13.067,-633.98,-491.48,77.057,-600,-722.81,-100,-646.25,1
246.18,12.56,-633.98,-491.48,77.057,-600,-722.81,0,-722.99,1
234.94,13.914,-633.98,-491.48,77.057,-600,-722.81,100,-815.68,1
264.17,17.158,-633.98,-491.48,77.057,-600,-722.81,200,-908.07,1
323.07,21.825,-633.98,-491.48,77.057,-600,-722.81,300,-936.7,1
408.76,16.698,-633.98,-491.48,77.057,-600,-645.63,-300,-476.33,1
318.87,13.791,-633.98,-491.48,77.057,-600,-645.63,-200,-516.82,1
237.2,11.062,-633.98,-491.48,77.057,-600,-645.63,-100,-567.86,1
175.65,9.3705,-633.98,-491.48,77.057,-600,-645.63,0,-633.15,1
159.5,10.135,-633.98,-491.48,77.057,-600,-645.63,100,-714.86,1
200.08,13.655,-633.98,-491.48,77.057,-600,-645.63,200,-802.81,1
273.16,18.954,-633.98,-491.48,77.057,-600,-645.63,300,-843.43,1
386.33,17.08,-633.98,-491.48,77.057,-600,-568.44,-300,-426.48,1
289.55,13.648,-633.98,-491.48,77.057,-600,-568.44,-200,-460.1,1
196.03,9.937,-633.98,-491.48,77.057,-600,-568.44,-100,-502.59,1
114.08,6.5106,-633.98,-491.48,77.057,-600,-568.44,0,-557.57,1
87.198,5.9404,-633.98,-491.48,77.057,-600,-568.44,100,-628.42,1
148.97,10.005,-633.98,-491.48,77.057,-600,-568.44,200,-709.95,1
238.29,16.182,-633.98,-491.48,77.057,-600,-568.44,300,-759.01,1
378.59,18.224,-633.98,-491.48,77.057,-600,-491.25,-300,-386.93,1
279.13,14.568,-633.98,-491.48,77.057,-600,-491.25,-200,-415.05,1
180.29,10.346,-633.98,-491.48,77.057,-600,-491.25,-100,-450.55,1
84.218,5.5051,-633.98,-491.48,77.057,-600,-491.25,0,-496.78,1
41.003,1.3141,-633.98,-491.48,77.057,-600,-491.25,100,-557.66,1
127.55,6.8739,-633.98,-491.48,77.057,-600,-491.25,200,-631.62,1
225.52,14.036,-633.98,-491.48,77.057,-600,-491.25,300,-685.2,1
386.42,20.107,-633.98,-491.48,77.057,-600,-414.06,-300,-357.34,0
289.67,16.547,-633.98,-491.48,77.057,-600,-414.06,-200,-381.23,1
196.21,12.442,-633.98,-491.48,77.057,-600,-414.06,-100,-411.3,1
114.4,7.829,-633.98,-491.48,77.057,-600,-414.06,0,-450.54,1
87.606,3.7669,-633.98,-491.48,77.057,-600,-414.06,100,-502.94,1
149.21,6.5123,-633.98,-491.48,77.057,-600,-414.06,200,-569.22,1
238.44,13.461,-633.98,-491.48,77.057,-600,-414.06,300,-623.76,1
408.94,22.63,-633.98,-491.48,77.057,-600,-336.88,-300,-337.18,0
319.09,19.397,-633.98,-491.48,77.057,-600,-336.88,-200,-357.99,0
237.5,15.789,-633.98,-491.48,77.057,-600,-336.88,-100,-384.08,1
176.06,12.048,-633.98,-491.48,77.057,-600,-336.88,0,-418.1,1
159.95,9.2493,-633.98,-491.48,77.057,-600,-336.88,100,-463.9,1
200.43,10.088,-633.98,-491.48,77.057,-600,-336.88,200,-523.32,1
273.43,15.283,-633.98,-491.48,77.057,-600,-336.88,300,-576.1,1
443.91,25.658,-633.98,-491.48,77.057,-600,-259.69,-300,-326.02,0
362.83,22.885,-633.98,-491.48,77.057,-600,-259.69,-200,-344.7,0
293.65,19.912,-633.98,-491.48,77.057,-600,-259.69,-100,-368.09,0
246.62,17.042,-633.98,-491.48,77.057,-600,-259.69,0,-398.58,1
235.39,15.087,-633.98,-491.48,77.057,-600,-259.69,100,-439.74,1
264.57,15.521,-633.98,-491.48,77.057,-600,-259.69,200,-493.74,1
323.4,19.324,-633.98,-491.48,77.057,-600,-259.69,300,-542.89,1
488.67,29.058,-633.98,-491.48,77.057,-600,-182.5,-300,-323.56,0
416.39,26.805,-633.98,-491.48,77.057,-600,-182.5,-200,-340.95,0
357.73,24.498,-633.98,-491.48,77.057,-600,-182.5,-100,-362.78,0
320.25,22.423,-633.98,-491.48,77.057,-600,-182.5,0,-391.27,0
311.69,21.184,-633.98,-491.48,77.057,-600,-182.5,100,-429.74,1
334.27,21.714,-633.98,-491.48,77.057,-600,-182.5,200,-479.94,1
382.53,24.814,-633.98,-491.48,77.057,-600,-182.5,300,-523.89,1
505.28,22.163,-633.98,-491.48,77.057,-500,-800,-300,-575.12,1
435.77,20.779,-633.98,-491.48,77.057,-500,-800,-200,-628.81,1
380.11,19.902,-633.98,-491.48,77.057,-500,-800,-100,-698.2,1
345.07,19.888,-633.98,-491.48,77.057,-500,-800,0,-789.95,1
337.14,21.072,-633.98,-491.48,77.057,-500,-800,100,-911.22,1
358.12,23.611,-633.98,-491.48,77.057,-500,-800,200,-1059,1
403.53,27.415,-633.98,-491.48,77.057,-500,-800,300,-1176.6,1
462.21,21.411,-633.98,-491.48,77.057,-500,-722.81,-300,-501.54,1
385,19.437,-633.98,-491.48,77.057,-500,-722.81,-200,-544.39,1
320.65,17.841,-633.98,-491.48,77.057,-500,-722.81,-100,-600.03,1
278.21,17.1,-633.98,-491.48,77.057,-500,-722.81,0,-674.59,1
268.31,17.788,-633.98,-491.48,77.057,-500,-722.81,100,-775.98,1
294.25,20.245,-633.98,-491.48,77.057,-500,-722.81,200,-906.75,1
348.09,24.356,-633.98,-491.48,77.057,-500,-722.81,300,-1026.3,1
428.82,21.087,-633.98,-491.48,77.057,-500,-645.63,-300,-439.1,1
344.2,18.509,-633.98,-491.48,77.057,-500,-645.63,-200,-472.82,1
270.3,16.063,-633.98,-491.48,77.057,-500,-645.63,-100,-516.63,1
218.29,14.294,-633.98,-491.48,77.057,-500,-645.63,0,-575.82,1
205.52,14.144,-633.98,-491.48,77.057,-500,-645.63,100,-658.27,1
238.38,16.395,-633.98,-491.48,77.057,-500,-645.63,200,-770.47,1
302.35,20.905,-633.98,-491.48,77.057,-500,-645.63,300,-887.53,1
407.49,21.323,-633.98,-491.48,77.057,-500,-568.44,-300,-388.01,1
317.23,18.223,-633.98,-491.48,77.057,-500,-568.44,-200,-414.44,1
235,14.915,-633.98,-491.48,77.057,-500,-568.44,-100,-448.61,1
172.66,11.817,-633.98,-491.48,77.057,-500,-568.44,0,-494.88,1
156.21,10.208,-633.98,-491.48,77.057,-500,-568.44,100,-560.42,1
197.46,12,-633.98,-491.48,77.057,-500,-568.44,200,-653.82,1
271.25,17.102,-633.98,-491.48,77.057,-500,-568.44,300,-763.61,1
400.15,22.216,-633.98,-491.48,77.057,-500,-491.25,-300,-347.97,1
307.75,18.786,-633.98,-491.48,77.057,-500,-491.25,-200,-368.84,1
222.04,14.835,-633.98,-491.48,77.057,-500,-491.25,-100,-395.59,1
154.56,10.436,-633.98,-491.48,77.057,-500,-491.25,0,-431.64,1
135.93,6.4305,-633.98,-491.48,77.057,-500,-491.25,100,-483.12,1
181.84,7.0306,-633.98,-491.48,77.057,-500,-491.25,200,-559.11,1
260.11,13.205,-633.98,-491.48,77.057,-500,-491.25,300,-657.89,1
407.57,23.799,-633.98,-491.48,77.057,-500,-414.06,-300,-318.3,0
317.34,20.296,-633.98,-491.48,77.057,-500,-414.06,-200,-335.12,1
235.15,16.13,-633.98,-491.48,77.057,-500,-414.06,-100,-356.44,1
172.87,11.151,-633.98,-491.48,77.057,-500,-414.06,0,-384.9,1
156.43,5.2057,-633.98,-491.48,77.057,-500,-414.06,100,-425.52,1
197.64,1.9845,-633.98,-491.48,77.057,-500,-414.06,200,-486.85,1
271.38,10.201,-633.98,-491.48,77.057,-500,-414.06,300,-573.04,1
428.98,26.031,-633.98,-491.48,77.057,-500,-336.88,-300,-298.22,0
344.41,22.709,-633.98,-491.48,77.057,-500,-336.88,-200,-312.2,0
270.56,18.763,-633.98,-491.48,77.057,-500,-336.88,-100,-329.74,1
218.61,14.107,-633.98,-491.48,77.057,-500,-336.88,0,-352.9,1
205.87,8.9001,-633.98,-491.48,77.057,-500,-336.88,100,-385.75,1
238.68,5.538,-633.98,-491.48,77.057,-500,-336.88,200,-435.95,1
302.59,10.471,-633.98,-491.48,77.057,-500,-336.88,300,-510.34,0
462.44,28.823,-633.98,-491.48,77.057,-500,-259.69,-300,-287.02,0
385.28,25.873,-633.98,-491.48,77.057,-500,-259.69,-200,-299.07,0
320.98,22.441,-633.98,-491.48,77.057,-500,-259.69,-100,-314.13,0
278.6,18.569,-633.98,-491.48,77.057,-500,-259.69,0,-333.86,1
268.71,14.67,-633.98,-491.48,77.057,-500,-259.69,100,-361.71,1
294.61,12.417,-633.98,-491.48,77.057,-500,-259.69,200,-404.45,0
348.4,14.94,-633.98,-491.48,77.057,-500,-259.69,300,-469.59,0
505.56,32.056,-633.98,-491.48,77.057,-500,-182.5,-300,-284.26,0
436.1,29.599,-633.98,-491.48,77.057,-500,-182.5,-200,-295.08,0
380.49,26.833,-633.98,-491.48,77.057,-500,-182.5,-100,-308.67,0
345.48,23.879,-633.98,-491.48,77.057,-500,-182.5,0,-326.51,0
337.56,21.179,-633.98,-491.48,77.057,-500,-182.5,100,-351.72,1
358.52,19.871,-633.98,-491.48,77.057,-500,-182.5,200,-390.5,0
403.89,21.752,-633.98,-491.48,77.057,-500,-182.5,300,-449.73,0
540.47,26.798,-633.98,-491.48,77.057,-400,-800,-300,-553.86,1
476.12,25.638,-633.98,-491.48,77.057,-400,-800,-200,-602.62,1
425.77,24.885,-633.98,-491.48,77.057,-400,-800,-100,-667.47,1
394.8,24.822,-633.98,-491.48,77.057,-400,-800,0,-757.39,1
387.89,25.756,-633.98,-491.48,77.057,-400,-800,100,-886.8,1
406.26,27.916,-633.98,-491.48,77.057,-400,-800,200,-1074.4,1
446.81,31.345,-633.98,-491.48,77.057,-400,-800,300,-1313.6,1
500.43,26.172,-633.98,-491.48,77.057,-400,-722.81,-300,-477.96,1
430.14,24.503,-633.98,-491.48,77.057,-400,-722.81,-200,-514.91,1
373.65,23.129,-633.98,-491.48,77.057,-400,-722.81,-100,-564.11,1
337.94,22.402,-633.98,-491.48,77.057,-400,-722.81,0,-632.84,1
329.83,22.784,-633.98,-491.48,77.057,-400,-722.81,100,-733.68,1
351.25,24.688,-633.98,-491.48,77.057,-400,-722.81,200,-885.72,1
397.45,28.249,-633.98,-491.48,77.057,-400,-722.81,300,-1095.9,1
469.77,25.901,-633.98,-491.48,77.057,-400,-645.63,-300,-413.99,1
394.04,23.705,-633.98,-491.48,77.057,-400,-645.63,-200,-441.33,1
331.45,21.61,-633.98,-491.48,77.057,-400,-645.63,-100,-477.58,1
290.6,20,-633.98,-491.48,77.057,-400,-645.63,0,-528.3,1
281.13,19.526,-633.98,-491.48,77.057,-400,-645.63,100,-603.74,1
305.98,20.941,-633.98,-491.48,77.057,-400,-645.63,200,-721.7,1
358.07,24.595,-633.98,-491.48,77.057,-400,-645.63,300,-898.99,1
450.38,26.099,-633.98,-491.48,77.057,-400,-568.44,-300,-362.14,1
370.72,23.419,-633.98,-491.48,77.057,-400,-568.44,-200,-382.12,1
303.35,20.576,-633.98,-491.48,77.057,-400,-568.44,-100,-408.35,1
258.09,17.88,-633.98,-491.48,77.057,-400,-568.44,0,-444.82,1
247.38,16.109,-633.98,-491.48,77.057,-400,-568.44,100,-499.33,1
275.29,16.599,-633.98,-491.48,77.057,-400,-568.44,200,-586.97,1
332.23,20.267,-633.98,-491.48,77.057,-400,-568.44,300,-729.43,1
443.76,26.859,-633.98,-491.48,77.057,-400,-491.25,-300,-321.91,0
362.64,23.821,-633.98,-491.48,77.057,-400,-491.25,-200,-336.58,1
293.42,20.339,-633.98,-491.48,77.057,-400,-491.25,-100,-355.55,1
246.35,16.52,-633.98,-491.48,77.057,-400,-491.25,0,-381.54,1
235.11,12.953,-633.98,-491.48,77.057,-400,-491.25,100,-420.09,1
264.32,11.639,-633.98,-491.48,77.057,-400,-491.25,200,-483,1
323.19,15.162,-633.98,-491.48,77.057,-400,-491.25,300,-592.08,0
450.46,28.239,-633.98,-491.48,77.057,-400,-414.06,-300,-292.39,0
370.81,25.037,-633.98,-491.48,77.057,-400,-414.06,-200,-303.41,0
303.46,21.188,-633.98,-491.48,77.057,-400,-414.06,-100,-317.44,1
258.22,16.567,-633.98,-491.48,77.057,-400,-414.06,0,-336.22,1
247.52,11.188,-633.98,-491.48,77.057,-400,-414.06,100,-363.54,1
275.42,6.413,-633.98,-491.48,77.057,-400,-414.06,200,-408.05,0
332.33,9.3392,-633.98,-491.48,77.057,-400,-414.06,300,-488.73,0
469.92,30.238,-633.98,-491.48,77.057,-400,-336.88,-300,-272.53,0
394.22,27.1,-633.98,-491.48,77.057,-400,-336.88,-200,-281.12,0
331.66,23.25,-633.98,-491.48,77.057,-400,-336.88,-100,-291.93,0
290.84,18.466,-633.98,-491.48,77.057,-400,-336.88,0,-306.07,1
281.38,12.461,-633.98,-491.48,77.057,-400,-336.88,100,-326.08,1
306.21,4.9071,-633.98,-491.48,77.057,-400,-336.88,200,-358.14,0
358.27,4.6326,-633.98,-491.48,77.057,-400,-336.88,300,-417.58,0
500.65,32.805,-633.98,-491.48,77.057,-400,-259.69,-300,-261.39,0
430.39,29.941,-633.98,-491.48,77.057,-400,-259.69,-200,-268.36,0
373.93,26.432,-633.98,-491.48,77.057,-400,-259.69,-100,-277.13,0
338.25,22.104,-633.98,-491.48,77.057,-400,-259.69,0,-288.43,0
330.16,16.828,-633.98,-491.48,77.057,-400,-259.69,100,-304.04,0
351.56,11.044,-633.98,-491.48,77.057,-400,-259.69,200,-328.56,0
397.72,9.2023,-633.98,-491.48,77.057,-400,-259.69,300,-374.3,0
540.73,35.848,-633.98,-491.48,77.057,-400,-182.5,-300,-258.39,0
476.42,33.419,-633.98,-491.48,77.057,-400,-182.5,-200,-264.24,0
426.11,30.497,-633.98,-491.48,77.057,-400,-182.5,-100,-271.72,0
395.16,27.006,-633.98,-491.48,77.057,-400,-182.5,0,-281.38,0
388.26,23.019,-633.98,-491.48,77.057,-400,-182.5,100,-294.68,0
406.61,19.233,-633.98,-491.48,77.057,-400,-182.5,200,-315.45,0
447.13,18.204,-633.98,-491.48,77.057,-400,-182.5,300,-354.33,0
590.68,31.704,-633.98,-491.48,77.057,-300,-800,-300,-545.58,1
532.44,30.828,-633.98,-491.48,77.057,-300,-800,-200,-590.01,1
487.93,30.298,-633.98,-491.48,77.057,-300,-800,-100,-650.33,1
461.16,30.341,-633.98,-491.48,77.057,-300,-800,0,-736.69,1
455.25,31.222,-633.98,-491.48,77.057,-300,-800,100,-868.01,1
471,33.179,-633.98,-491.48,77.057,-300,-800,200,-1080.6,1
506.39,36.33,-633.98,-491.48,77.057,-300,-800,300,-1433.9,1
554.28,31.243,-633.98,-491.48,77.057,-300,-722.81,-300,-468.03,1
491.75,29.938,-633.98,-491.48,77.057,-300,-722.81,-200,-500.07,1
443.18,28.885,-633.98,-491.48,77.057,-300,-722.81,-100,-543.6,1
413.52,28.353,-633.98,-491.48,77.057,-300,-722.81,0,-606.29,1
406.92,28.709,-633.98,-491.48,77.057,-300,-722.81,100,-702.94,1
424.47,30.342,-633.98,-491.48,77.057,-300,-722.81,200,-863.38,1
463.42,33.501,-633.98,-491.48,77.057,-300,-722.81,300,-1143,1
526.76,31.087,-633.98,-491.48,77.057,-300,-645.63,-300,-402.75,1
460.51,29.334,-633.98,-491.48,77.057,-300,-645.63,-200,-424.87,1
408.23,27.68,-633.98,-491.48,77.057,-300,-645.63,-100,-454.82,1
375.82,26.406,-633.98,-491.48,77.057,-300,-645.63,0,-497.92,1
368.55,25.987,-633.98,-491.48,77.057,-300,-645.63,100,-564.91,1
387.84,27.045,-633.98,-491.48,77.057,-300,-645.63,200,-678.73,1
430.13,30.081,-633.98,-491.48,77.057,-300,-645.63,300,-887.93,1
509.55,31.329,-633.98,-491.48,77.057,-300,-568.44,-300,-350.05,0
440.71,29.153,-633.98,-491.48,77.057,-300,-568.44,-200,-364.83,1
385.77,26.866,-633.98,-491.48,77.057,-300,-568.44,-100,-384.67,1
351.29,24.701,-633.98,-491.48,77.057,-300,-568.44,0,-412.96,1
343.5,23.185,-633.98,-491.48,77.057,-300,-568.44,100,-456.85,1
364.12,23.246,-633.98,-491.48,77.057,-300,-568.44,200,-532.52,1
408.86,25.897,-633.98,-491.48,77.057,-300,-568.44,300,-678.65,0
503.7,32.054,-633.98,-491.48,77.057,-300,-491.25,-300,-309.4,0
433.94,29.54,-633.98,-491.48,77.057,-300,-491.25,-200,-319.12,0
378.01,26.679,-633.98,-491.48,77.057,-300,-491.25,-100,-332.05,1
342.76,23.57,-633.98,-491.48,77.057,-300,-491.25,0,-350.14,1
334.77,20.627,-633.98,-491.48,77.057,-300,-491.25,100,-377.72,1
355.89,19.016,-633.98,-491.48,77.057,-300,-491.25,200,-425.18,0
401.56,20.732,-633.98,-491.48,77.057,-300,-491.25,300,-520.12,0
509.62,33.323,-633.98,-491.48,77.057,-300,-414.06,-300,-279.76,0
440.79,30.618,-633.98,-491.48,77.057,-300,-414.06,-200,-286.22,0
385.86,27.36,-633.98,-491.48,77.057,-300,-414.06,-100,-294.78,0
351.39,23.462,-633.98,-491.48,77.057,-300,-414.06,0,-306.44,1
343.61,18.998,-633.98,-491.48,77.057,-300,-414.06,100,-323.6,0
364.22,14.833,-633.98,-491.48,77.057,-300,-414.06,200,-352.33,0
408.95,14.345,-633.98,-491.48,77.057,-300,-414.06,300,-410.34,0
526.9,35.16,-633.98,-491.48,77.057,-300,-336.88,-300,-259.9,0
460.66,32.452,-633.98,-491.48,77.057,-300,-336.88,-200,-264.32,0
408.41,29.076,-633.98,-491.48,77.057,-300,-336.88,-100,-270.27,0
376.01,24.798,-633.98,-491.48,77.057,-300,-336.88,0,-278.21,0
368.75,19.319,-633.98,-491.48,77.057,-300,-336.88,100,-289.31,0
388.02,12.452,-633.98,-491.48,77.057,-300,-336.88,200,-306.9,0
430.29,6.7005,-633.98,-491.48,77.057,-300,-336.88,300,-341.49,0
554.48,37.539,-633.98,-491.48,77.057,-300,-259.69,-300,-248.71,0
491.97,35.028,-633.98,-491.48,77.057,-300,-259.69,-200,-251.82,0
443.42,31.852,-633.98,-491.48,77.057,-300,-259.69,-100,-256.2,0
413.78,27.739,-633.98,-491.48,77.057,-300,-259.69,0,-262.03,0
407.18,22.276,-633.98,-491.48,77.057,-300,-259.69,100,-269.88,0
424.72,14.86,-633.98,-491.48,77.057,-300,-259.69,200,-281.53,0
463.66,5.03,-633.98,-491.48,77.057,-300,-259.69,300,-303.18,0
590.92,40.394,-633.98,-491.48,77.057,-300,-182.5,-300,-245.48,0
532.7,38.253,-633.98,-491.48,77.057,-300,-182.5,-200,-247.59,0
488.22,35.557,-633.98,-491.48,77.057,-300,-182.5,-100,-250.89,0
461.47,32.092,-633.98,-491.48,77.057,-300,-182.5,0,-255.46,0
455.57,27.576,-633.98,-491.48,77.057,-300,-182.5,100,-261.6,0
471.31,21.791,-633.98,-491.48,77.057,-300,-182.5,200,-270.44,0
506.67,15.77,-633.98,-491.48,77.057,-300,-182.5,300,-286.19,0
652.45,36.825,-633.98,-491.48,77.057,-200,-800,-300,-551.7,1
600.24,36.285,-633.98,-491.48,77.057,-200,-800,-200,-593.02,1
561.14,36.058,-633.98,-491.48,77.057,-200,-800,-100,-649.88,1
538.02,36.328,-633.98,-491.48,77.057,-200,-800,0,-732.73,1
532.96,37.316,-633.98,-491.48,77.057,-200,-800,100,-862.19,1
546.48,39.239,-633.98,-491.48,77.057,-200,-800,200,-1084.2,1
577.26,42.237,-633.98,-491.48,77.057,-200,-800,300,-1521.4,1
619.7,36.565,-633.98,-491.48,77.057,-200,-722.81,-300,-473.16,1
564.46,35.678,-633.98,-491.48,77.057,-200,-722.81,-200,-501.83,1
522.69,35.029,-633.98,-491.48,77.057,-200,-722.81,-100,-541.55,1
497.79,34.832,-633.98,-491.48,77.057,-200,-722.81,0,-600.08,1
492.32,35.377,-633.98,-491.48,77.057,-200,-722.81,100,-693.23,1
506.92,36.997,-633.98,-491.48,77.057,-200,-722.81,200,-856.82,1
539.96,39.959,-633.98,-491.48,77.057,-200,-722.81,300,-1184.9,1
595.21,36.571,-633.98,-491.48,77.057,-200,-645.63,-300,-406.54,0
537.46,35.322,-633.98,-491.48,77.057,-200,-645.63,-200,-424.99,1
493.41,34.193,-633.98,-491.48,77.057,-200,-645.63,-100,-450.66,1
466.95,33.404,-633.98,-491.48,77.057,-200,-645.63,0,-488.73,1
461.12,33.313,-633.98,-491.48,77.057,-200,-645.63,100,-550.07,1
476.67,34.41,-633.98,-491.48,77.057,-200,-645.63,200,-660.15,1
511.67,37.179,-633.98,-491.48,77.057,-200,-645.63,300,-887.7,1
580.03,36.92,-633.98,-491.48,77.057,-200,-568.44,-300,-352.54,0
520.6,35.326,-633.98,-491.48,77.057,-200,-568.44,-200,-363.46,0
474.99,33.691,-633.98,-491.48,77.057,-200,-568.44,-100,-378.78,1
447.44,32.201,-633.98,-491.48,77.057,-200,-568.44,0,-401.55,1
441.35,31.239,-633.98,-491.48,77.057,-200,-568.44,100,-438.4,1
457.58,31.47,-633.98,-491.48,77.057,-200,-568.44,200,-505.45,0
493.93,33.746,-633.98,-491.48,77.057,-200,-568.44,300,-648.53,0
574.9,37.686,-633.98,-491.48,77.057,-200,-491.25,-300,-310.82,0
514.88,35.807,-633.98,-491.48,77.057,-200,-491.25,-200,-316.68,0
468.71,33.702,-633.98,-491.48,77.057,-200,-491.25,-100,-325.14,0
440.77,31.464,-633.98,-491.48,77.057,-200,-491.25,0,-337.77,1
434.59,29.4,-633.98,-491.48,77.057,-200,-491.25,100,-358.09,0
451.06,28.275,-633.98,-491.48,77.057,-200,-491.25,200,-395,0
487.9,29.483,-633.98,-491.48,77.057,-200,-491.25,300,-475.41,0
580.09,38.926,-633.98,-491.48,77.057,-200,-414.06,-300,-280.39,0
520.67,36.874,-633.98,-491.48,77.057,-200,-414.06,-200,-283.12,0
475.06,34.42,-633.98,-491.48,77.057,-200,-414.06,-100,-287.5,0
447.52,31.518,-633.98,-491.48,77.057,-200,-414.06,0,-294.19,0
441.43,28.257,-633.98,-491.48,77.057,-200,-414.06,100,-304.76,0
457.66,25.211,-633.98,-491.48,77.057,-200,-414.06,200,-323.41,0
494,24.266,-633.98,-491.48,77.057,-200,-414.06,300,-363.7,0
595.33,40.67,-633.98,-491.48,77.057,-200,-336.88,-300,-259.98,0
537.59,38.596,-633.98,-491.48,77.057,-200,-336.88,-200,-260.87,0
493.55,36.002,-633.98,-491.48,77.057,-200,-336.88,-100,-263.01,0
467.1,32.704,-633.98,-491.48,77.057,-200,-336.88,0,-266.62,0
461.27,28.487,-633.98,-491.48,77.057,-200,-336.88,100,-272.21,0
476.82,23.301,-633.98,-491.48,77.057,-200,-336.88,200,-281.41,0
511.81,18.472,-633.98,-491.48,77.057,-200,-336.88,300,-299.92,0
619.87,42.909,-633.98,-491.48,77.057,-200,-259.69,-300,-248.41,0
564.65,40.987,-633.98,-491.48,77.057,-200,-259.69,-200,-248.14,0
522.89,38.517,-633.98,-491.48,77.057,-200,-259.69,-100,-249.03,0
498,35.242,-633.98,-491.48,77.057,-200,-259.69,0,-251.11,0
492.54,30.739,-633.98,-491.48,77.057,-200,-259.69,100,-254.45,0
507.13,24.302,-633.98,-491.48,77.057,-200,-259.69,200,-259.51,0
540.16,15.006,-633.98,-491.48,77.057,-200,-259.69,300,-268.23,0
652.67,45.595,-633.98,-491.48,77.057,-200,-182.5,-300,-244.89,0
600.48,43.989,-633.98,-491.48,77.057,-200,-182.5,-200,-243.68,0
561.39,41.908,-633.98,-491.48,77.057,-200,-182.5,-100,-243.65,0
538.28,39.113,-633.98,-491.48,77.057,-200,-182.5,0,-244.77,0
533.23,35.187,-633.98,-491.48,77.057,-200,-182.5,100,-246.99,0
546.74,29.365,-633.98,-491.48,77.057,-200,-182.5,200,-250.35,0
577.51,20.237,-633.98,-491.48,77.057,-200,-182.5,300,-255.44,0
722.84,42.092,-633.98,-491.48,77.057,-100,-800,-300,-572.39,1
676.08,41.924,-633.98,-491.48,77.057,-100,-800,-200,-611.84,1
641.62,42.056,-633.98,-491.48,77.057,-100,-800,-100,-666.11,1
621.5,42.638,-633.98,-491.48,77.057,-100,-800,0,-744.46,1
617.13,43.851,-633.98,-491.48,77.057,-100,-800,100,-863.77,1
628.84,45.875,-633.98,-491.48,77.057,-100,-800,200,-1056.8,1
655.76,48.84,-633.98,-491.48,77.057,-100,-800,300,-1408.2,1
693.41,42.056,-633.98,-491.48,77.057,-100,-722.81,-300,-494.13,0
644.53,41.625,-633.98,-491.48,77.057,-100,-722.81,-200,-521.24,1
608.28,41.443,-633.98,-491.48,77.057,-100,-722.81,-100,-559.29,1
587.02,41.679,-633.98,-491.48,77.057,-100,-722.81,0,-615.86,1
582.39,42.565,-633.98,-491.48,77.057,-100,-722.81,100,-705.98,1
594.78,44.37,-633.98,-491.48,77.057,-100,-722.81,200,-861.89,1
623.18,47.327,-633.98,-491.48,77.057,-100,-722.81,300,-1167.1,1
671.62,42.258,-633.98,-491.48,77.057,-100,-645.63,-300,-426.45,0
621.01,41.556,-633.98,-491.48,77.057,-100,-645.63,-200,-443.05,0
583.31,41.019,-633.98,-491.48,77.057,-100,-645.63,-100,-466.87,1
561.1,40.824,-633.98,-491.48,77.057,-100,-645.63,0,-503.22,1
556.26,41.251,-633.98,-491.48,77.057,-100,-645.63,100,-563.2,1
569.22,42.676,-633.98,-491.48,77.057,-100,-645.63,200,-672.81,1
598.83,45.498,-633.98,-491.48,77.057,-100,-645.63,300,-904.47,0
658.2,42.76,-633.98,-491.48,77.057,-100,-568.44,-300,-370.74,0
606.48,41.801,-633.98,-491.48,77.057,-100,-568.44,-200,-379.31,0
567.81,40.895,-633.98,-491.48,77.057,-100,-568.44,-100,-392.2,1
544.98,40.198,-633.98,-491.48,77.057,-100,-568.44,0,-412.54,1
539.99,40.008,-633.98,-491.48,77.057,-100,-568.44,100,-447.2,1
553.33,40.815,-633.98,-491.48,77.057,-100,-568.44,200,-513.2,0
583.75,43.27,-633.98,-491.48,77.057,-100,-568.44,300,-661.98,0
653.69,43.622,-633.98,-491.48,77.057,-100,-491.25,-300,-327.18,0
601.58,42.455,-633.98,-491.48,77.057,-100,-491.25,-200,-330.24,0
562.57,41.207,-633.98,-491.48,77.057,-100,-491.25,-100,-335.73,0
539.51,39.98,-633.98,-491.48,77.057,-100,-491.25,0,-345.21,1
534.48,39.028,-633.98,-491.48,77.057,-100,-491.25,100,-362.18,0
547.95,38.901,-633.98,-491.48,77.057,-100,-491.25,200,-395.66,0
578.65,40.568,-633.98,-491.48,77.057,-100,-491.25,300,-474.73,0
658.26,44.894,-633.98,-491.48,77.057,-100,-414.06,-300,-295.12,0
606.54,43.604,-633.98,-491.48,77.057,-100,-414.06,-200,-294.72,0
567.87,42.105,-633.98,-491.48,77.057,-100,-414.06,-100,-295.79,0
545.04,40.407,-633.98,-491.48,77.057,-100,-414.06,0,-298.96,0
540.05,38.635,-633.98,-491.48,77.057,-100,-414.06,100,-305.64,0
553.4,37.232,-633.98,-491.48,77.057,-100,-414.06,200,-319.59,0
583.81,37.398,-633.98,-491.48,77.057,-100,-414.06,300,-353.57,0
671.72,46.602,-633.98,-491.48,77.057,-100,-336.88,-300,-273.44,0
621.13,45.31,-633.98,-491.48,77.057,-100,-336.88,-200,-271.01,0
583.43,43.716,-633.98,-491.48,77.057,-100,-336.88,-100,-269.7,0
561.23,41.734,-633.98,-491.48,77.057,-100,-336.88,0,-269.73,0
556.39,39.287,-633.98,-491.48,77.057,-100,-336.88,100,-271.49,0
569.35,36.465,-633.98,-491.48,77.057,-100,-336.88,200,-276.1,0
598.95,34.152,-633.98,-491.48,77.057,-100,-336.88,300,-287.6,0
693.57,48.746,-633.98,-491.48,77.057,-100,-259.69,-300,-261.02,0
644.69,47.593,-633.98,-491.48,77.057,-100,-259.69,-200,-257.32,0
608.45,46.112,-633.98,-491.48,77.057,-100,-259.69,-100,-254.73,0
587.2,44.153,-633.98,-491.48,77.057,-100,-259.69,0,-253.32,0
582.57,41.468,-633.98,-491.48,77.057,-100,-259.69,100,-253.15,0
594.96,37.673,-633.98,-491.48,77.057,-100,-259.69,200,-254.35,0
623.35,32.413,-633.98,-491.48,77.057,-100,-259.69,300,-257.62,0
723.03,51.289,-633.98,-491.48,77.057,-100,-182.5,-300,-257.07,0
676.29,50.414,-633.98,-491.48,77.057,-100,-182.5,-200,-252.37,0
641.84,49.267,-633.98,-491.48,77.057,-100,-182.5,-100,-248.83,0
621.73,47.697,-633.98,-491.48,77.057,-100,-182.5,0,-246.54,0
617.36,45.427,-633.98,-491.48,77.057,-100,-182.5,100,-245.48,0
629.06,41.871,-633.98,-491.48,77.057,-100,-182.5,200,-245.62,0
655.98,35.612,-633.98,-491.48,77.057,-100,-182.5,300,-246.87,0
799.56,47.419,-633.98,-491.48,77.057,0,-800,-300,-605.82,1
757.55,47.639,-633.98,-491.48,77.057,0,-800,-200,-643.73,1
726.96,48.159,-633.98,-491.48,77.057,0,-800,-100,-694.22,1
709.26,49.1,-633.98,-491.48,77.057,0,-800,0,-762.32,1
705.44,50.605,-633.98,-491.48,77.057,0,-800,100,-851.11,1
715.7,52.817,-633.98,-491.48,77.057,0,-800,200,-945.5,1
739.47,55.834,-633.98,-491.48,77.057,0,-800,300,-960.25,1
773.06,47.618,-633.98,-491.48,77.057,0,-722.81,-300,-530.52,0
729.53,47.659,-633.98,-491.48,77.057,0,-722.81,-200,-557.62,1
697.71,47.97,-633.98,-491.48,77.057,0,-722.81,-100,-595.31,1
679.25,48.691,-633.98,-491.48,77.057,0,-722.81,0,-649.68,1
675.26,50.003,-633.98,-491.48,77.057,0,-722.81,100,-729.33,1
685.98,52.113,-633.98,-491.48,77.057,0,-722.81,200,-837.76,1
710.74,55.195,-633.98,-491.48,77.057,0,-722.81,300,-920.81,1
753.57,48.033,-633.98,-491.48,77.057,0,-645.63,-300,-463.2,0
708.84,47.894,-633.98,-491.48,77.057,0,-645.63,-200,-480.03,0
676.05,47.976,-633.98,-491.48,77.057,0,-645.63,-100,-504.53,1
656.99,48.428,-633.98,-491.48,77.057,0,-645.63,0,-542.03,1
652.86,49.471,-633.98,-491.48,77.057,0,-645.63,100,-602.26,1
663.94,51.387,-633.98,-491.48,77.057,0,-645.63,200,-700.52,1
689.49,54.469,-633.98,-491.48,77.057,0,-645.63,300,-830.31,0
741.64,48.714,-633.98,-491.48,77.057,0,-568.44,-300,-406.19,0
696.14,48.411,-633.98,-491.48,77.057,0,-568.44,-200,-414.42,0
662.73,48.262,-633.98,-491.48,77.057,0,-568.44,-100,-427.5,0
643.27,48.41,-633.98,-491.48,77.057,0,-568.44,0,-449.1,1
639.05,49.1,-633.98,-491.48,77.057,0,-568.44,100,-486.78,1
650.36,50.697,-633.98,-491.48,77.057,0,-568.44,200,-556.98,0
676.43,53.661,-633.98,-491.48,77.057,0,-568.44,300,-687.19,0
737.64,49.707,-633.98,-491.48,77.057,0,-491.25,-300,-360.52,0
691.88,49.281,-633.98,-491.48,77.057,0,-491.25,-200,-362.35,0
658.24,48.93,-633.98,-491.48,77.057,0,-491.25,-100,-366.92,0
638.65,48.772,-633.98,-491.48,77.057,0,-491.25,0,-376.3,0
634.4,49.044,-633.98,-491.48,77.057,0,-491.25,100,-394.92,0
645.79,50.169,-633.98,-491.48,77.057,0,-491.25,200,-433.86,0
672.04,52.818,-633.98,-491.48,77.057,0,-491.25,300,-524.01,0
741.69,51.05,-633.98,-491.48,77.057,0,-414.06,-300,-326.22,0
696.2,50.569,-633.98,-491.48,77.057,0,-414.06,-200,-323.72,0
662.78,50.088,-633.98,-491.48,77.057,0,-414.06,-100,-322.75,0
643.32,49.682,-633.98,-491.48,77.057,0,-414.06,0,-324.26,0
639.1,49.532,-633.98,-491.48,77.057,0,-414.06,100,-330.27,0
650.42,50.05,-633.98,-491.48,77.057,0,-414.06,200,-346.05,0
676.48,52.089,-633.98,-491.48,77.057,0,-414.06,300,-389.31,0
753.66,52.764,-633.98,-491.48,77.057,0,-336.88,-300,-302.63,0
708.94,52.322,-633.98,-491.48,77.057,0,-336.88,-200,-297.4,0
676.16,51.83,-633.98,-491.48,77.057,0,-336.88,-100,-293.17,0
657.1,51.313,-633.98,-491.48,77.057,0,-336.88,0,-290.35,0
652.97,50.866,-633.98,-491.48,77.057,0,-336.88,100,-289.66,0
664.04,50.777,-633.98,-491.48,77.057,0,-336.88,200,-292.87,0
689.59,51.889,-633.98,-491.48,77.057,0,-336.88,300,-306.23,0
773.2,54.848,-633.98,-491.48,77.057,0,-259.69,-300,-288.93,0
729.67,54.554,-633.98,-491.48,77.057,0,-259.69,-200,-281.95,0
697.86,54.206,-633.98,-491.48,77.057,0,-259.69,-100,-275.85,0
679.41,53.799,-633.98,-491.48,77.057,0,-259.69,0,-270.86,0
675.42,53.35,-633.98,-491.48,77.057,0,-259.69,100,-267.21,0
686.13,52.974,-633.98,-491.48,77.057,0,-259.69,200,-265.3,0
710.89,53.189,-633.98,-491.48,77.057,0,-259.69,300,-266.39,0
799.73,57.271,-633.98,-491.48,77.057,0,-182.5,-300,-284.48,0
757.74,57.234,-633.98,-491.48,77.057,0,-182.5,-200,-276.23,0
727.15,57.195,-633.98,-491.48,77.057,0,-182.5,-100,-268.87,0
709.47,57.159,-633.98,-491.48,77.057,0,-182.5,0,-262.6,0
705.64,57.142,-633.98,-491.48,77.057,0,-182.5,100,-257.59,0
715.9,57.205,-633.98,-491.48,77.057,0,-182.5,200,-253.93,0
739.67,57.595,-633.98,-491.48,77.057,0,-182.5,300,-251.71,0
