Distance_Error(mm),Direction_Error(deg),ref_display_position_x,ref_display_position_y,ref_display_position_z,second_display_position_x,second_display_position_y,second_display_position_z,Cost,feasible
514.7,9.926,-633.98,-491.48,77.057,-800,-800,-300,-920.66,1
446.66,8.6312,-633.98,-491.48,77.057,-800,-800,-200,-1018.1,1
392.55,8.7078,-633.98,-491.48,77.057,-800,-800,-100,-1140.4,1
358.72,10.518,-633.98,-491.48,77.057,-800,-800,0,-1281.4,1
351.1,13.712,-633.98,-491.48,77.057,-800,-800,100,-1402.4,1
371.3,17.817,-633.98,-491.48,77.057,-800,-800,200,-1401.2,1
415.27,22.53,-633.98,-491.48,77.057,-800,-800,300,-1174.5,1
472.49,8.8641,-633.98,-491.48,77.057,-800,-722.81,-300,-800.04,1
397.29,6.5324,-633.98,-491.48,77.057,-800,-722.81,-200,-883.98,1
335.3,5.6248,-633.98,-491.48,77.057,-800,-722.81,-100,-993.64,1
294.98,7.3757,-633.98,-491.48,77.057,-800,-722.81,0,-1131.6,1
285.66,11.013,-633.98,-491.48,77.057,-800,-722.81,100,-1278.7,1
310.15,15.598,-633.98,-491.48,77.057,-800,-722.81,200,-1351.7,1
361.63,20.758,-633.98,-491.48,77.057,-800,-722.81,300,-1205.1,1
439.88,8.7585,-633.98,-491.48,77.057,-800,-645.63,-300,-700.45,1
357.89,5.4504,-633.98,-491.48,77.057,-800,-645.63,-200,-771.86,1
287.53,2.6146,-633.98,-491.48,77.057,-800,-645.63,-100,-867.69,1
239.29,4.2179,-633.98,-491.48,77.057,-800,-645.63,0,-995.44,1
227.7,8.6079,-633.98,-491.48,77.057,-800,-645.63,100,-1151.5,1
257.75,13.727,-633.98,-491.48,77.057,-800,-645.63,200,-1279.9,1
317.85,19.317,-633.98,-491.48,77.057,-800,-645.63,300,-1221.8,1
419.11,9.8003,-633.98,-491.48,77.057,-800,-568.44,-300,-620.38,1
332.03,6.2747,-633.98,-491.48,77.057,-800,-568.44,-200,-681.08,1
254.62,2.4347,-633.98,-491.48,77.057,-800,-568.44,-100,-763.85,1
198.55,2.4659,-633.98,-491.48,77.057,-800,-568.44,0,-878.49,1
184.42,7.2455,-633.98,-491.48,77.057,-800,-568.44,100,-1031.6,1
220.45,12.629,-633.98,-491.48,77.057,-800,-568.44,200,-1194.5,1
288.42,18.479,-633.98,-491.48,77.057,-800,-568.44,300,-1222.3,1
411.99,11.815,-633.98,-491.48,77.057,-800,-491.25,-300,-557.97,1
322.99,8.6855,-633.98,-491.48,77.057,-800,-491.25,-200,-610.05,1
242.72,5.7923,-633.98,-491.48,77.057,-800,-491.25,-100,-681.67,1
183.03,4.9865,-633.98,-491.48,77.057,-800,-491.25,0,-783.31,1
167.59,7.9416,-633.98,-491.48,77.057,-800,-491.25,100,-927.34,1
206.58,12.808,-633.98,-491.48,77.057,-800,-491.25,200,-1106.8,1
277.97,18.552,-633.98,-491.48,77.057,-800,-491.25,300,-1207.9,1
419.2,14.495,-633.98,-491.48,77.057,-800,-414.06,-300,-511.34,1
332.14,11.892,-633.98,-491.48,77.057,-800,-414.06,-200,-556.86,1
254.76,9.7024,-633.98,-491.48,77.057,-800,-414.06,-100,-619.7,1
198.73,8.9244,-633.98,-491.48,77.057,-800,-414.06,0,-710.19,1
184.61,10.605,-633.98,-491.48,77.057,-800,-414.06,100,-843.49,1
220.61,14.485,-633.98,-491.48,77.057,-800,-414.06,200,-1027.5,1
288.55,19.746,-633.98,-491.48,77.057,-800,-414.06,300,-1184.4,1
440.04,17.601,-633.98,-491.48,77.057,-800,-336.88,-300,-478.81,1
358.09,15.499,-633.98,-491.48,77.057,-800,-336.88,-200,-519.67,1
287.77,13.838,-633.98,-491.48,77.057,-800,-336.88,-100,-576.14,1
239.59,13.239,-633.98,-491.48,77.057,-800,-336.88,0,-658.18,1
228.02,14.378,-633.98,-491.48,77.057,-800,-336.88,100,-782.06,1
258.03,17.438,-633.98,-491.48,77.057,-800,-336.88,200,-964.98,1
318.07,22.067,-633.98,-491.48,77.057,-800,-336.88,300,-1160.8,1
472.72,20.979,-633.98,-491.48,77.057,-800,-259.69,-300,-459.07,0
397.56,19.335,-633.98,-491.48,77.057,-800,-259.69,-200,-496.97,1
335.62,18.121,-633.98,-491.48,77.057,-800,-259.69,-100,-549.39,1
295.34,17.759,-633.98,-491.48,77.057,-800,-259.69,0,-625.95,1
286.04,18.721,-633.98,-491.48,77.057,-800,-259.69,100,-743.37,1
310.49,21.271,-633.98,-491.48,77.057,-800,-259.69,200,-924.41,1
361.93,25.335,-633.98,-491.48,77.057,-800,-259.69,300,-1147,1
514.98,24.527,-633.98,-491.48,77.057,-800,-182.5,-300,-451.28,0
446.98,23.306,-633.98,-491.48,77.057,-800,-182.5,-200,-487.77,0
392.91,22.493,-633.98,-491.48,77.057,-800,-182.5,-100,-538.31,1
359.12,22.399,-633.98,-491.48,77.057,-800,-182.5,0,-612.42,1
351.51,23.368,-633.98,-491.48,77.057,-800,-182.5,100,-727.23,1
371.68,25.652,-633.98,-491.48,77.057,-800,-182.5,200,-908.95,1
415.61,29.296,-633.98,-491.48,77.057,-800,-182.5,300,-1151.5,1
491.64,13.629,-633.98,-491.48,77.057,-700,-800,-300,-803.53,1
419.88,12.236,-633.98,-491.48,77.057,-700,-800,-200,-884.66,1
361.79,11.768,-633.98,-491.48,77.057,-700,-800,-100,-992.29,1
324.78,12.7,-633.98,-491.48,77.057,-700,-800,0,-1130.5,1
316.34,15.131,-633.98,-491.48,77.057,-700,-800,100,-1282.3,1
338.61,18.794,-633.98,-491.48,77.057,-700,-800,200,-1361,1
386.32,23.351,-633.98,-491.48,77.057,-700,-800,300,-1205,1
447.26,12.599,-633.98,-491.48,77.057,-700,-722.81,-300,-687.07,1
366.92,10.387,-633.98,-491.48,77.057,-700,-722.81,-200,-752.8,1
298.7,8.9823,-633.98,-491.48,77.057,-700,-722.81,-100,-842.35,1
252.61,9.3441,-633.98,-491.48,77.057,-700,-722.81,0,-964.53,1
241.66,11.837,-633.98,-491.48,77.057,-700,-722.81,100,-1119.6,1
270.16,15.904,-633.98,-491.48,77.057,-700,-722.81,200,-1257.7,1
327.99,20.965,-633.98,-491.48,77.057,-700,-722.81,300,-1210.7,1
412.66,12.267,-633.98,-491.48,77.057,-700,-645.63,-300,-593,1
323.85,9.2423,-633.98,-491.48,77.057,-700,-645.63,-200,-645.79,1
243.86,6.5197,-633.98,-491.48,77.057,-700,-645.63,-100,-718.78,1
184.54,5.7208,-633.98,-491.48,77.057,-700,-645.63,0,-822.2,1
169.25,8.3619,-633.98,-491.48,77.057,-700,-645.63,100,-966.22,1
207.93,13.046,-633.98,-491.48,77.057,-700,-645.63,200,-1133.7,1
278.97,18.715,-633.98,-491.48,77.057,-700,-645.63,300,-1188.8,1
390.45,12.828,-633.98,-491.48,77.057,-700,-568.44,-300,-518.82,1
295.03,9.3172,-633.98,-491.48,77.057,-700,-568.44,-200,-561.36,1
204.03,5.4205,-633.98,-491.48,77.057,-700,-568.44,-100,-620.48,1
127.35,1.9913,-633.98,-491.48,77.057,-700,-568.44,0,-706.11,1
103.96,5.0789,-633.98,-491.48,77.057,-700,-568.44,100,-832.54,1
159.36,10.644,-633.98,-491.48,77.057,-700,-568.44,200,-1005.3,1
244.92,16.92,-633.98,-491.48,77.057,-700,-568.44,300,-1139.1,1
382.79,14.305,-633.98,-491.48,77.057,-700,-491.25,-300,-461.95,1
284.81,10.8,-633.98,-491.48,77.057,-700,-491.25,-200,-496.75,1
188.96,6.8613,-633.98,-491.48,77.057,-700,-491.25,-100,-545.05,1
101.47,2.8504,-633.98,-491.48,77.057,-700,-491.25,0,-615.74,1
69.89,4.0296,-633.98,-491.48,77.057,-700,-491.25,100,-723.85,1
139.55,9.5929,-633.98,-491.48,77.057,-700,-491.25,200,-887.25,1
232.51,16.078,-633.98,-491.48,77.057,-700,-491.25,300,-1069.7,1
390.54,16.554,-633.98,-491.48,77.057,-700,-414.06,-300,-420.03,1
295.15,13.391,-633.98,-491.48,77.057,-700,-414.06,-200,-449.24,1
204.21,10.065,-633.98,-491.48,77.057,-700,-414.06,-100,-489.58,1
127.63,7.2446,-633.98,-491.48,77.057,-700,-414.06,0,-548.79,1
104.3,7.0918,-633.98,-491.48,77.057,-700,-414.06,100,-641.15,1
159.58,10.828,-633.98,-491.48,77.057,-700,-414.06,200,-789.78,1
245.06,16.713,-633.98,-491.48,77.057,-700,-414.06,300,-994.73,1
412.84,19.379,-633.98,-491.48,77.057,-700,-336.88,-300,-391.05,0
324.07,16.691,-633.98,-491.48,77.057,-700,-336.88,-200,-416.45,1
244.15,14.04,-633.98,-491.48,77.057,-700,-336.88,-100,-451.31,1
184.93,11.99,-633.98,-491.48,77.057,-700,-336.88,0,-502.43,1
169.67,11.689,-633.98,-491.48,77.057,-700,-336.88,100,-582.97,1
208.27,14.131,-633.98,-491.48,77.057,-700,-336.88,200,-717.59,1
279.22,19.009,-633.98,-491.48,77.057,-700,-336.88,300,-928.88,1
447.5,22.605,-633.98,-491.48,77.057,-700,-259.69,-300,-373.51,0
367.22,20.424,-633.98,-491.48,77.057,-700,-259.69,-200,-396.55,0
299.06,18.393,-633.98,-491.48,77.057,-700,-259.69,-100,-428.02,1
253.03,16.946,-633.98,-491.48,77.057,-700,-259.69,0,-474.08,1
242.1,16.8,-633.98,-491.48,77.057,-700,-259.69,100,-547.05,1
270.56,18.665,-633.98,-491.48,77.057,-700,-259.69,200,-671.73,1
328.31,22.705,-633.98,-491.48,77.057,-700,-259.69,300,-883.51,1
491.93,26.098,-633.98,-491.48,77.057,-700,-182.5,-300,-366.45,0
420.22,24.416,-633.98,-491.48,77.057,-700,-182.5,-200,-388.32,0
362.18,22.95,-633.98,-491.48,77.057,-700,-182.5,-100,-418.19,0
325.22,22.034,-633.98,-491.48,77.057,-700,-182.5,0,-461.93,1
316.79,22.16,-633.98,-491.48,77.057,-700,-182.5,100,-531.46,1
339.03,23.846,-633.98,-491.48,77.057,-700,-182.5,200,-651.81,1
386.69,27.36,-633.98,-491.48,77.057,-700,-182.5,300,-865.69,1
488.38,17.653,-633.98,-491.48,77.057,-600,-800,-300,-713.74,1
416.05,16.294,-633.98,-491.48,77.057,-600,-800,-200,-779.35,1
357.33,15.594,-633.98,-491.48,77.057,-600,-800,-100,-869.9,1
319.81,15.967,-633.98,-491.48,77.057,-600,-800,0,-995.18,1
311.23,17.703,-633.98,-491.48,77.057,-600,-800,100,-1156.4,1
333.85,20.802,-633.98,-491.48,77.057,-600,-800,200,-1298.2,1
382.15,25.044,-633.98,-491.48,77.057,-600,-800,300,-1230,1
443.67,16.695,-633.98,-491.48,77.057,-600,-722.81,-300,-602.49,1
362.53,14.65,-633.98,-491.48,77.057,-600,-722.81,-200,-652.42,1
293.29,13.128,-633.98,-491.48,77.057,-600,-722.81,-100,-722.38,1
246.18,12.771,-633.98,-491.48,77.057,-600,-722.81,0,-823.13,1
234.94,14.189,-633.98,-491.48,77.057,-600,-722.81,100,-966.52,1
264.17,17.436,-633.98,-491.48,77.057,-600,-722.81,200,-1138.2,1
323.07,22.115,-633.98,-491.48,77.057,-600,-722.81,300,-1193.6,1
408.76,16.28,-633.98,-491.48,77.057,-600,-645.63,-300,-514.32,1
318.87,13.542,-633.98,-491.48,77.057,-600,-645.63,-200,-552.02,1
237.2,10.996,-633.98,-491.48,77.057,-600,-645.63,-100,-605.1,1
175.65,9.4691,-633.98,-491.48,77.057,-600,-645.63,0,-683.19,1
159.5,10.286,-633.98,-491.48,77.057,-600,-645.63,100,-801.38,1
200.08,13.76,-633.98,-491.48,77.057,-600,-645.63,200,-970.24,1
273.16,19.038,-633.98,-491.48,77.057,-600,-645.63,300,-1114.5,1
386.33,16.575,-633.98,-491.48,77.057,-600,-568.44,-300,-445.95,1
289.55,13.303,-633.98,-491.48,77.057,-600,-568.44,-200,-474.59,1
196.03,9.7615,-633.98,-491.48,77.057,-600,-568.44,-100,-514.72,1
114.08,6.5026,-633.98,-491.48,77.057,-600,-568.44,0,-574.23,1
87.198,5.9692,-633.98,-491.48,77.057,-600,-568.44,100,-667.44,1
148.97,9.9202,-633.98,-491.48,77.057,-600,-568.44,200,-815.49,1
238.29,16.048,-633.98,-491.48,77.057,-600,-568.44,300,-1002.8,1
378.59,17.664,-633.98,-491.48,77.057,-600,-491.25,-300,-394.32,1
279.13,14.173,-633.98,-491.48,77.057,-600,-491.25,-200,-416.52,1
180.29,10.125,-633.98,-491.48,77.057,-600,-491.25,-100,-447.27,1
84.218,5.4568,-633.98,-491.48,77.057,-600,-491.25,0,-492.75,1
41.003,1.2431,-633.98,-491.48,77.057,-600,-491.25,100,-565.09,1
127.55,6.6151,-633.98,-491.48,77.057,-600,-491.25,200,-687.24,1
225.52,13.721,-633.98,-491.48,77.057,-600,-491.25,300,-879.68,1
386.42,19.518,-633.98,-491.48,77.057,-600,-414.06,-300,-356.7,1
289.67,16.14,-633.98,-491.48,77.057,-600,-414.06,-200,-374.52,1
196.21,12.239,-633.98,-491.48,77.057,-600,-414.06,-100,-398.81,1
114.4,7.8494,-633.98,-491.48,77.057,-600,-414.06,0,-434.39,1
87.606,3.9553,-633.98,-491.48,77.057,-600,-414.06,100,-491.14,1
149.21,6.3443,-633.98,-491.48,77.057,-600,-414.06,200,-590.09,1
238.44,13.113,-633.98,-491.48,77.057,-600,-414.06,300,-767.29,1
408.94,22.02,-633.98,-491.48,77.057,-600,-336.88,-300,-330.92,0
319.09,18.99,-633.98,-491.48,77.057,-600,-336.88,-200,-345.89,1
237.5,15.614,-633.98,-491.48,77.057,-600,-336.88,-100,-365.97,1
176.06,12.122,-633.98,-491.48,77.057,-600,-336.88,0,-395.02,1
159.95,9.4989,-633.98,-491.48,77.057,-600,-336.88,100,-441.17,1
200.43,10.188,-633.98,-491.48,77.057,-600,-336.88,200,-522.79,1
273.43,15.101,-633.98,-491.48,77.057,-600,-336.88,300,-680.01,1
443.91,25.022,-633.98,-491.48,77.057,-600,-259.69,-300,-315.35,0
362.83,22.465,-633.98,-491.48,77.057,-600,-259.69,-200,-328.59,0
293.65,19.738,-633.98,-491.48,77.057,-600,-259.69,-100,-346.16,0
246.62,17.124,-633.98,-491.48,77.057,-600,-259.69,0,-371.32,1
235.39,15.358,-633.98,-491.48,77.057,-600,-259.69,100,-411.07,1
264.57,15.772,-633.98,-491.48,77.057,-600,-259.69,200,-481.77,1
323.4,19.362,-633.98,-491.48,77.057,-600,-259.69,300,-623.43,1
488.67,28.384,-633.98,-491.48,77.057,-600,-182.5,-300,-308.96,0
416.39,26.35,-633.98,-491.48,77.057,-600,-182.5,-200,-321.33,0
357.73,24.288,-633.98,-491.48,77.057,-600,-182.5,-100,-337.7,0
320.25,22.466,-633.98,-491.48,77.057,-600,-182.5,0,-361.07,0
311.69,21.428,-633.98,-491.48,77.057,-600,-182.5,100,-397.93,1
334.27,22.015,-633.98,-491.48,77.057,-600,-182.5,200,-463.7,1
382.53,25.005,-633.98,-491.48,77.057,-600,-182.5,300,-598.19,0
505.28,21.994,-633.98,-491.48,77.057,-500,-800,-300,-650.49,1
435.77,20.765,-633.98,-491.48,77.057,-500,-800,-200,-703.09,1
380.11,20.028,-633.98,-491.48,77.057,-500,-800,-100,-777.85,1
345.07,20.121,-633.98,-491.48,77.057,-500,-800,0,-886.91,1
337.14,21.367,-633.98,-491.48,77.057,-500,-800,100,-1043.5,1
358.12,23.939,-633.98,-491.48,77.057,-500,-800,200,-1227.1,1
403.53,27.782,-633.98,-491.48,77.057,-500,-800,300,-1254.5,1
462.21,21.144,-633.98,-491.48,77.057,-500,-722.81,-300,-544.1,1
385,19.326,-633.98,-491.48,77.057,-500,-722.81,-200,-581.58,1
320.65,17.873,-633.98,-491.48,77.057,-500,-722.81,-100,-635.22,1
278.21,17.234,-633.98,-491.48,77.057,-500,-722.81,0,-715.36,1
268.31,17.958,-633.98,-491.48,77.057,-500,-722.81,100,-838.5,1
294.25,20.401,-633.98,-491.48,77.057,-500,-722.81,200,-1016.2,1
348.09,24.509,-633.98,-491.48,77.057,-500,-722.81,300,-1157.6,1
428.82,20.735,-633.98,-491.48,77.057,-500,-645.63,-300,-461.07,1
344.2,18.316,-633.98,-491.48,77.057,-500,-645.63,-200,-487.5,1
270.3,16.017,-633.98,-491.48,77.057,-500,-645.63,-100,-525.19,1
218.29,14.348,-633.98,-491.48,77.057,-500,-645.63,0,-582.01,1
205.52,14.197,-633.98,-491.48,77.057,-500,-645.63,100,-672.64,1
238.38,16.361,-633.98,-491.48,77.057,-500,-645.63,200,-820.01,1
302.35,20.806,-633.98,-491.48,77.057,-500,-645.63,300,-1010.7,1
407.49,20.904,-633.98,-491.48,77.057,-500,-568.44,-300,-397.6,1
317.23,17.971,-633.98,-491.48,77.057,-500,-568.44,-200,-416.32,1
235,14.824,-633.98,-491.48,77.057,-500,-568.44,-100,-442.68,1
172.66,11.839,-633.98,-491.48,77.057,-500,-568.44,0,-482.26,1
156.21,10.183,-633.98,-491.48,77.057,-500,-568.44,100,-546.33,1
197.46,11.756,-633.98,-491.48,77.057,-500,-568.44,200,-657.59,1
271.25,16.706,-633.98,-491.48,77.057,-500,-568.44,300,-843.06,1
400.15,21.75,-633.98,-491.48,77.057,-500,-491.25,-300,-350.26,1
307.75,18.504,-633.98,-491.48,77.057,-500,-491.25,-200,-363.85,1
222.04,14.745,-633.98,-491.48,77.057,-500,-491.25,-100,-382.57,1
154.56,10.512,-633.98,-491.48,77.057,-500,-491.25,0,-410.24,1
135.93,6.4781,-633.98,-491.48,77.057,-500,-491.25,100,-454.95,1
181.84,6.5472,-633.98,-491.48,77.057,-500,-491.25,200,-534.95,1
260.11,12.484,-633.98,-491.48,77.057,-500,-491.25,300,-688.14,1
407.57,23.299,-633.98,-491.48,77.057,-500,-414.06,-300,-316.13,0
317.34,20.005,-633.98,-491.48,77.057,-500,-414.06,-200,-326.47,1
235.15,16.075,-633.98,-491.48,77.057,-500,-414.06,-100,-340.29,1
172.87,11.354,-633.98,-491.48,77.057,-500,-414.06,0,-360.22,1
156.43,5.6653,-633.98,-491.48,77.057,-500,-414.06,100,-391.95,1
197.64,1.1928,-633.98,-491.48,77.057,-500,-414.06,200,-449.1,1
271.38,9.2908,-633.98,-491.48,77.057,-500,-414.06,300,-566.48,0
428.98,25.502,-633.98,-491.48,77.057,-500,-336.88,-300,-292.91,0
344.41,22.411,-633.98,-491.48,77.057,-500,-336.88,-200,-301.25,0
270.56,18.74,-633.98,-491.48,77.057,-500,-336.88,-100,-312.1,1
218.61,14.406,-633.98,-491.48,77.057,-500,-336.88,0,-327.31,1
205.87,9.5493,-633.98,-491.48,77.057,-500,-336.88,100,-350.99,1
238.68,6.0811,-633.98,-491.48,77.057,-500,-336.88,200,-393.29,0
302.59,9.9926,-633.98,-491.48,77.057,-500,-336.88,300,-482.81,0
462.44,28.257,-633.98,-491.48,77.057,-500,-259.69,-300,-278.89,0
385.28,25.553,-633.98,-491.48,77.057,-500,-259.69,-200,-286.08,0
320.98,22.417,-633.98,-491.48,77.057,-500,-259.69,-100,-295.23,0
278.6,18.889,-633.98,-491.48,77.057,-500,-259.69,0,-307.79,1
268.71,15.329,-633.98,-491.48,77.057,-500,-259.69,100,-326.95,1
294.61,13.132,-633.98,-491.48,77.057,-500,-259.69,200,-360.76,0
348.4,15.09,-633.98,-491.48,77.057,-500,-259.69,300,-432.91,0
505.56,31.437,-633.98,-491.48,77.057,-500,-182.5,-300,-273.02,0
436.1,29.23,-633.98,-491.48,77.057,-500,-182.5,-200,-279.59,0
380.49,26.762,-633.98,-491.48,77.057,-500,-182.5,-100,-287.92,0
345.48,24.147,-633.98,-491.48,77.057,-500,-182.5,0,-299.26,0
337.56,21.772,-633.98,-491.48,77.057,-500,-182.5,100,-316.44,1
358.52,20.605,-633.98,-491.48,77.057,-500,-182.5,200,-346.56,0
403.89,22.237,-633.98,-491.48,77.057,-500,-182.5,300,-411.01,0
540.47,26.635,-633.98,-491.48,77.057,-400,-800,-300,-612.02,1
476.12,25.613,-633.98,-491.48,77.057,-400,-800,-200,-654.68,1
425.77,24.982,-633.98,-491.48,77.057,-400,-800,-100,-716.87,1
394.8,25.011,-633.98,-491.48,77.057,-400,-800,0,-811.28,1
387.89,25.998,-633.98,-491.48,77.057,-400,-800,100,-958.01,1
406.26,28.186,-633.98,-491.48,77.057,-400,-800,200,-1167.3,1
446.81,31.655,-633.98,-491.48,77.057,-400,-800,300,-1295.2,1
500.43,25.928,-633.98,-491.48,77.057,-400,-722.81,-300,-509.11,1
430.14,24.402,-633.98,-491.48,77.057,-400,-722.81,-200,-537.47,1
373.65,23.153,-633.98,-491.48,77.057,-400,-722.81,-100,-578.91,1
337.94,22.508,-633.98,-491.48,77.057,-400,-722.81,0,-642.64,1
329.83,22.912,-633.98,-491.48,77.057,-400,-722.81,100,-745.93,1
351.25,24.789,-633.98,-491.48,77.057,-400,-722.81,200,-915.16,1
397.45,28.331,-633.98,-491.48,77.057,-400,-722.81,300,-1119.6,1
469.77,25.589,-633.98,-491.48,77.057,-400,-645.63,-300,-429.75,1
394.04,23.545,-633.98,-491.48,77.057,-400,-645.63,-200,-448.18,1
331.45,21.584,-633.98,-491.48,77.057,-400,-645.63,-100,-474.97,1
290.6,20.053,-633.98,-491.48,77.057,-400,-645.63,0,-516.23,1
281.13,19.562,-633.98,-491.48,77.057,-400,-645.63,100,-584.4,1
305.98,20.864,-633.98,-491.48,77.057,-400,-645.63,200,-704.87,1
358.07,24.402,-633.98,-491.48,77.057,-400,-645.63,300,-905.28,1
450.38,25.732,-633.98,-491.48,77.057,-400,-568.44,-300,-369.72,1
370.72,23.221,-633.98,-491.48,77.057,-400,-568.44,-200,-381.64,1
303.35,20.535,-633.98,-491.48,77.057,-400,-568.44,-100,-398.68,1
258.09,17.937,-633.98,-491.48,77.057,-400,-568.44,0,-424.64,1
247.38,16.116,-633.98,-491.48,77.057,-400,-568.44,100,-467.61,1
275.29,16.356,-633.98,-491.48,77.057,-400,-568.44,200,-546.25,1
332.23,19.741,-633.98,-491.48,77.057,-400,-568.44,300,-700.85,0
443.76,26.452,-633.98,-491.48,77.057,-400,-491.25,-300,-325.38,0
362.64,23.607,-633.98,-491.48,77.057,-400,-491.25,-200,-333.26,1
293.42,20.324,-633.98,-491.48,77.057,-400,-491.25,-100,-344.2,1
246.35,16.664,-633.98,-491.48,77.057,-400,-491.25,0,-360.44,1
235.11,13.082,-633.98,-491.48,77.057,-400,-491.25,100,-386.91,1
264.32,11.315,-633.98,-491.48,77.057,-400,-491.25,200,-435.66,0
323.19,14.228,-633.98,-491.48,77.057,-400,-491.25,300,-539.45,0
450.46,27.797,-633.98,-491.48,77.057,-400,-414.06,-300,-293.67,0
370.81,24.82,-633.98,-491.48,77.057,-400,-414.06,-200,-299.19,0
303.46,21.226,-633.98,-491.48,77.057,-400,-414.06,-100,-306.55,1
258.22,16.87,-633.98,-491.48,77.057,-400,-414.06,0,-317.04,1
247.52,11.68,-633.98,-491.48,77.057,-400,-414.06,100,-333.55,1
275.42,6.4403,-633.98,-491.48,77.057,-400,-414.06,200,-363.43,0
332.33,7.8758,-633.98,-491.48,77.057,-400,-414.06,300,-428.74,0
469.92,29.761,-633.98,-491.48,77.057,-400,-336.88,-300,-272.2,0
394.22,26.875,-633.98,-491.48,77.057,-400,-336.88,-200,-276.42,0
331.66,23.333,-633.98,-491.48,77.057,-400,-336.88,-100,-281.8,0
290.84,18.921,-633.98,-491.48,77.057,-400,-336.88,0,-289.12,1
281.38,13.358,-633.98,-491.48,77.057,-400,-336.88,100,-300.08,0
306.21,6.33,-633.98,-491.48,77.057,-400,-336.88,200,-319.21,0
358.27,3.2495,-633.98,-491.48,77.057,-400,-336.88,300,-360.68,0
500.65,32.281,-633.98,-491.48,77.057,-400,-259.69,-300,-259.23,0
430.39,29.688,-633.98,-491.48,77.057,-400,-259.69,-200,-262.74,0
373.93,26.52,-633.98,-491.48,77.057,-400,-259.69,-100,-267.09,0
338.25,22.624,-633.98,-491.48,77.057,-400,-259.69,0,-272.78,0
330.16,17.882,-633.98,-491.48,77.057,-400,-259.69,100,-280.93,0
351.56,12.622,-633.98,-491.48,77.057,-400,-259.69,200,-294.57,0
397.72,10.019,-633.98,-491.48,77.057,-400,-259.69,300,-323.41,0
540.73,35.258,-633.98,-491.48,77.057,-400,-182.5,-300,-253.68,0
476.42,33.105,-633.98,-491.48,77.057,-400,-182.5,-200,-256.76,0
426.11,30.531,-633.98,-491.48,77.057,-400,-182.5,-100,-260.58,0
395.16,27.48,-633.98,-491.48,77.057,-400,-182.5,0,-265.53,0
388.26,24.016,-633.98,-491.48,77.057,-400,-182.5,100,-272.51,0
406.61,20.691,-633.98,-491.48,77.057,-400,-182.5,200,-283.93,0
447.13,19.482,-633.98,-491.48,77.057,-400,-182.5,300,-307.68,0
590.68,31.539,-633.98,-491.48,77.057,-300,-800,-300,-596.64,1
532.44,30.794,-633.98,-491.48,77.057,-300,-800,-200,-632.43,1
487.93,30.38,-633.98,-491.48,77.057,-300,-800,-100,-685.92,1
461.16,30.512,-633.98,-491.48,77.057,-300,-800,0,-769.78,1
455.25,31.45,-633.98,-491.48,77.057,-300,-800,100,-908.19,1
471,33.443,-633.98,-491.48,77.057,-300,-800,200,-1137.7,1
506.39,36.64,-633.98,-491.48,77.057,-300,-800,300,-1386.7,1
554.28,31.008,-633.98,-491.48,77.057,-300,-722.81,-300,-495.19,1
491.75,29.84,-633.98,-491.48,77.057,-300,-722.81,-200,-517.29,1
443.18,28.905,-633.98,-491.48,77.057,-300,-722.81,-100,-550.52,1
413.52,28.454,-633.98,-491.48,77.057,-300,-722.81,0,-603.05,1
406.92,28.837,-633.98,-491.48,77.057,-300,-722.81,100,-691.75,1
424.47,30.452,-633.98,-491.48,77.057,-300,-722.81,200,-851.1,1
463.42,33.592,-633.98,-491.48,77.057,-300,-722.81,300,-1107.8,1
526.76,30.792,-633.98,-491.48,77.057,-300,-645.63,-300,-417.52,1
460.51,29.188,-633.98,-491.48,77.057,-300,-645.63,-200,-430.51,1
408.23,27.663,-633.98,-491.48,77.057,-300,-645.63,-100,-450.12,1
375.82,26.47,-633.98,-491.48,77.057,-300,-645.63,0,-481.22,1
368.55,26.047,-633.98,-491.48,77.057,-300,-645.63,100,-534.24,1
387.84,27.005,-633.98,-491.48,77.057,-300,-645.63,200,-633.49,1
430.13,29.912,-633.98,-491.48,77.057,-300,-645.63,300,-829.25,1
509.55,30.984,-633.98,-491.48,77.057,-300,-568.44,-300,-359.16,0
440.71,28.977,-633.98,-491.48,77.057,-300,-568.44,-200,-366.47,1
385.77,26.846,-633.98,-491.48,77.057,-300,-568.44,-100,-377.49,1
351.29,24.784,-633.98,-491.48,77.057,-300,-568.44,0,-394.92,1
343.5,23.246,-633.98,-491.48,77.057,-300,-568.44,100,-424.61,1
364.12,23.098,-633.98,-491.48,77.057,-300,-568.44,200,-481.04,0
408.86,25.427,-633.98,-491.48,77.057,-300,-568.44,300,-603.86,0
503.7,31.669,-633.98,-491.48,77.057,-300,-491.25,-300,-316.31,0
433.94,29.351,-633.98,-491.48,77.057,-300,-491.25,-200,-320.32,0
378.01,26.691,-633.98,-491.48,77.057,-300,-491.25,-100,-326.33,1
342.76,23.744,-633.98,-491.48,77.057,-300,-491.25,0,-335.71,1
334.77,20.821,-633.98,-491.48,77.057,-300,-491.25,100,-351.43,1
355.89,18.895,-633.98,-491.48,77.057,-300,-491.25,200,-381.16,0
401.56,19.943,-633.98,-491.48,77.057,-300,-491.25,300,-448.31,0
509.62,32.901,-633.98,-491.48,77.057,-300,-414.06,-300,-285.82,0
440.79,30.424,-633.98,-491.48,77.057,-300,-414.06,-200,-288.08,0
385.86,27.426,-633.98,-491.48,77.057,-300,-414.06,-100,-291.43,0
351.39,23.795,-633.98,-491.48,77.057,-300,-414.06,0,-296.48,1
343.61,19.51,-633.98,-491.48,77.057,-300,-414.06,100,-304.62,0
364.22,15.096,-633.98,-491.48,77.057,-300,-414.06,200,-319.52,0
408.95,13.333,-633.98,-491.48,77.057,-300,-414.06,300,-353.03,0
526.9,34.695,-633.98,-491.48,77.057,-300,-336.88,-300,-265.24,0
460.66,32.247,-633.98,-491.48,77.057,-300,-336.88,-200,-266.66,0
408.41,29.191,-633.98,-491.48,77.057,-300,-336.88,-100,-268.73,0
376.01,25.301,-633.98,-491.48,77.057,-300,-336.88,0,-271.7,0
368.75,20.259,-633.98,-491.48,77.057,-300,-336.88,100,-276.16,0
388.02,13.702,-633.98,-491.48,77.057,-300,-336.88,200,-283.77,0
430.29,6.3744,-633.98,-491.48,77.057,-300,-336.88,300,-300.09,0
554.48,37.017,-633.98,-491.48,77.057,-300,-259.69,-300,-252.78,0
491.97,34.786,-633.98,-491.48,77.057,-300,-259.69,-200,-253.78,0
443.42,31.974,-633.98,-491.48,77.057,-300,-259.69,-100,-255.28,0
413.78,28.34,-633.98,-491.48,77.057,-300,-259.69,0,-257.34,0
407.18,23.521,-633.98,-491.48,77.057,-300,-259.69,100,-260.24,0
424.72,16.978,-633.98,-491.48,77.057,-300,-259.69,200,-264.75,0
463.66,8.2741,-633.98,-491.48,77.057,-300,-259.69,300,-273.58,0
590.92,39.793,-633.98,-491.48,77.057,-300,-182.5,-300,-247.35,0
532.7,37.939,-633.98,-491.48,77.057,-300,-182.5,-200,-248.05,0
488.22,35.62,-633.98,-491.48,77.057,-300,-182.5,-100,-249.21,0
461.47,32.666,-633.98,-491.48,77.057,-300,-182.5,0,-250.87,0
455.57,28.855,-633.98,-491.48,77.057,-300,-182.5,100,-253.16,0
471.31,24.012,-633.98,-491.48,77.057,-300,-182.5,200,-256.57,0
506.67,18.779,-633.98,-491.48,77.057,-300,-182.5,300,-262.86,0
652.45,36.651,-633.98,-491.48,77.057,-200,-800,-300,-603.61,1
600.24,36.24,-633.98,-491.48,77.057,-200,-800,-200,-635.38,1
561.14,36.129,-633.98,-491.48,77.057,-200,-800,-100,-684.08,1
538.02,36.495,-633.98,-491.48,77.057,-200,-800,0,-762.44,1
532.96,37.555,-633.98,-491.48,77.057,-200,-800,100,-897.45,1
546.48,39.534,-633.98,-491.48,77.057,-200,-800,200,-1148.6,1
577.26,42.601,-633.98,-491.48,77.057,-200,-800,300,-1578.9,1
619.7,36.324,-633.98,-491.48,77.057,-200,-722.81,-300,-501.13,1
564.46,35.572,-633.98,-491.48,77.057,-200,-722.81,-200,-519.39,1
522.69,35.043,-633.98,-491.48,77.057,-200,-722.81,-100,-547.92,1
497.79,34.936,-633.98,-491.48,77.057,-200,-722.81,0,-594.39,1
492.32,35.53,-633.98,-491.48,77.057,-200,-722.81,100,-675.45,1
506.92,37.16,-633.98,-491.48,77.057,-200,-722.81,200,-831.23,1
539.96,40.132,-633.98,-491.48,77.057,-200,-722.81,300,-1150.3,1
595.21,36.271,-633.98,-491.48,77.057,-200,-645.63,-300,-422.85,1
537.46,35.168,-633.98,-491.48,77.057,-200,-645.63,-200,-432.33,1
493.41,34.172,-633.98,-491.48,77.057,-200,-645.63,-100,-447.66,1
466.95,33.477,-633.98,-491.48,77.057,-200,-645.63,0,-473.14,1
461.12,33.413,-633.98,-491.48,77.057,-200,-645.63,100,-518.13,1
476.67,34.456,-633.98,-491.48,77.057,-200,-645.63,200,-606.13,1
511.67,37.134,-633.98,-491.48,77.057,-200,-645.63,300,-803.42,0
580.03,36.569,-633.98,-491.48,77.057,-200,-568.44,-300,-364.18,0
520.6,35.14,-633.98,-491.48,77.057,-200,-568.44,-200,-368.31,1
474.99,33.663,-633.98,-491.48,77.057,-200,-568.44,-100,-375.6,1
447.44,32.289,-633.98,-491.48,77.057,-200,-568.44,0,-388.2,1
441.35,31.348,-633.98,-491.48,77.057,-200,-568.44,100,-410.87,1
457.58,31.45,-633.98,-491.48,77.057,-200,-568.44,200,-455.75,0
493.93,33.471,-633.98,-491.48,77.057,-200,-568.44,300,-560.56,0
574.9,37.289,-633.98,-491.48,77.057,-200,-491.25,-300,-321.16,0
514.88,35.602,-633.98,-491.48,77.057,-200,-491.25,-200,-322.34,0
468.71,33.695,-633.98,-491.48,77.057,-200,-491.25,-100,-325.14,0
440.77,31.627,-633.98,-491.48,77.057,-200,-491.25,0,-330.51,1
434.59,29.627,-633.98,-491.48,77.057,-200,-491.25,100,-340.58,0
451.06,28.323,-633.98,-491.48,77.057,-200,-491.25,200,-360.81,0
487.9,29.019,-633.98,-491.48,77.057,-200,-491.25,300,-408.82,0
580.09,38.483,-633.98,-491.48,77.057,-200,-414.06,-300,-290.6,0
520.67,36.653,-633.98,-491.48,77.057,-200,-414.06,-200,-290.32,0
475.06,34.452,-633.98,-491.48,77.057,-200,-414.06,-100,-290.9,0
447.52,31.811,-633.98,-491.48,77.057,-200,-414.06,0,-292.69,0
441.43,28.744,-633.98,-491.48,77.057,-200,-414.06,100,-296.45,0
457.66,25.601,-633.98,-491.48,77.057,-200,-414.06,200,-304.24,0
494,23.843,-633.98,-491.48,77.057,-200,-414.06,300,-322.84,0
595.33,40.173,-633.98,-491.48,77.057,-200,-336.88,-300,-269.97,0
537.59,38.351,-633.98,-491.48,77.057,-200,-336.88,-200,-269.07,0
493.55,36.066,-633.98,-491.48,77.057,-200,-336.88,-100,-268.73,0
467.1,33.143,-633.98,-491.48,77.057,-200,-336.88,0,-269.02,0
461.27,29.342,-633.98,-491.48,77.057,-200,-336.88,100,-270.13,0
476.82,24.436,-633.98,-491.48,77.057,-200,-336.88,200,-272.64,0
511.81,18.903,-633.98,-491.48,77.057,-200,-336.88,300,-278.58,0
619.87,42.342,-633.98,-491.48,77.057,-200,-259.69,-300,-257.46,0
564.65,40.691,-633.98,-491.48,77.057,-200,-259.69,-200,-256.29,0
522.89,38.575,-633.98,-491.48,77.057,-200,-259.69,-100,-255.6,0
498,35.774,-633.98,-491.48,77.057,-200,-259.69,0,-255.37,0
492.54,31.917,-633.98,-491.48,77.057,-200,-259.69,100,-255.61,0
507.13,26.346,-633.98,-491.48,77.057,-200,-259.69,200,-256.4,0
540.16,17.892,-633.98,-491.48,77.057,-200,-259.69,300,-258.16,0
652.67,44.936,-633.98,-491.48,77.057,-200,-182.5,-300,-251.95,0
600.48,43.605,-633.98,-491.48,77.057,-200,-182.5,-200,-250.53,0
561.39,41.893,-633.98,-491.48,77.057,-200,-182.5,-100,-249.6,0
538.28,39.616,-633.98,-491.48,77.057,-200,-182.5,0,-249.12,0
533.23,36.457,-633.98,-491.48,77.057,-200,-182.5,100,-249.07,0
546.74,31.841,-633.98,-491.48,77.057,-200,-182.5,200,-249.43,0
577.51,24.723,-633.98,-491.48,77.057,-200,-182.5,300,-250.26,0
722.84,41.901,-633.98,-491.48,77.057,-100,-800,-300,-633.74,1
676.08,41.861,-633.98,-491.48,77.057,-100,-800,-200,-664.28,1
641.62,42.114,-633.98,-491.48,77.057,-100,-800,-100,-712.13,1
621.5,42.804,-633.98,-491.48,77.057,-100,-800,0,-790.35,1
617.13,44.11,-633.98,-491.48,77.057,-100,-800,100,-927.55,1
628.84,46.222,-633.98,-491.48,77.057,-100,-800,200,-1196.6,1
655.76,49.291,-633.98,-491.48,77.057,-100,-800,300,-1820.4,1
693.41,41.796,-633.98,-491.48,77.057,-100,-722.81,-300,-527.4,1
644.53,41.499,-633.98,-491.48,77.057,-100,-722.81,-200,-544.02,1
608.28,41.441,-633.98,-491.48,77.057,-100,-722.81,-100,-571.12,1
587.02,41.783,-633.98,-491.48,77.057,-100,-722.81,0,-616.45,1
582.39,42.748,-633.98,-491.48,77.057,-100,-722.81,100,-697.08,1
594.78,44.609,-633.98,-491.48,77.057,-100,-722.81,200,-856.76,1
623.18,47.627,-633.98,-491.48,77.057,-100,-722.81,300,-1235.9,1
671.62,41.935,-633.98,-491.48,77.057,-100,-645.63,-300,-445.99,0
621.01,41.376,-633.98,-491.48,77.057,-100,-645.63,-200,-453.54,1
583.31,40.975,-633.98,-491.48,77.057,-100,-645.63,-100,-467.07,1
561.1,40.891,-633.98,-491.48,77.057,-100,-645.63,0,-490.85,1
556.26,41.384,-633.98,-491.48,77.057,-100,-645.63,100,-534.29,1
569.22,42.822,-633.98,-491.48,77.057,-100,-645.63,200,-621.47,1
598.83,45.634,-633.98,-491.48,77.057,-100,-645.63,300,-831.1,0
658.2,42.378,-633.98,-491.48,77.057,-100,-568.44,-300,-384.81,0
606.48,41.579,-633.98,-491.48,77.057,-100,-568.44,-200,-386.82,0
567.81,40.829,-633.98,-491.48,77.057,-100,-568.44,-100,-392.07,1
544.98,40.263,-633.98,-491.48,77.057,-100,-568.44,0,-402.67,1
539.99,40.141,-633.98,-491.48,77.057,-100,-568.44,100,-423.29,1
553.33,40.918,-633.98,-491.48,77.057,-100,-568.44,200,-465.91,0
583.75,43.25,-633.98,-491.48,77.057,-100,-568.44,300,-569.66,0
653.69,43.183,-633.98,-491.48,77.057,-100,-491.25,-300,-339.84,0
601.58,42.197,-633.98,-491.48,77.057,-100,-491.25,-200,-338.78,0
562.57,41.138,-633.98,-491.48,77.057,-100,-491.25,-100,-339.4,0
539.51,40.085,-633.98,-491.48,77.057,-100,-491.25,0,-342.62,1
534.48,39.24,-633.98,-491.48,77.057,-100,-491.25,100,-350.45,0
547.95,39.064,-633.98,-491.48,77.057,-100,-491.25,200,-368.05,0
578.65,40.457,-633.98,-491.48,77.057,-100,-491.25,300,-412.27,0
658.26,44.395,-633.98,-491.48,77.057,-100,-414.06,-300,-307.8,0
606.54,43.31,-633.98,-491.48,77.057,-100,-414.06,-200,-305.22,0
567.87,42.043,-633.98,-491.48,77.057,-100,-414.06,-100,-303.57,0
545.04,40.59,-633.98,-491.48,77.057,-100,-414.06,0,-303.15,0
540.05,39.023,-633.98,-491.48,77.057,-100,-414.06,100,-304.65,0
553.4,37.649,-633.98,-491.48,77.057,-100,-414.06,200,-309.87,0
583.81,37.412,-633.98,-491.48,77.057,-100,-414.06,300,-324.67,0
671.72,46.034,-633.98,-491.48,77.057,-100,-336.88,-300,-286.13,0
621.13,44.969,-633.98,-491.48,77.057,-100,-336.88,-200,-282.9,0
583.43,43.652,-633.98,-491.48,77.057,-100,-336.88,-100,-280.3,0
561.23,42.002,-633.98,-491.48,77.057,-100,-336.88,0,-278.39,0
556.39,39.925,-633.98,-491.48,77.057,-100,-336.88,100,-277.31,0
569.35,37.394,-633.98,-491.48,77.057,-100,-336.88,200,-277.48,0
598.95,34.838,-633.98,-491.48,77.057,-100,-336.88,300,-280.29,0
693.57,48.092,-633.98,-491.48,77.057,-100,-259.69,-300,-272.98,0
644.69,47.179,-633.98,-491.48,77.057,-100,-259.69,-200,-269.45,0
608.45,46.009,-633.98,-491.48,77.057,-100,-259.69,-100,-266.49,0
587.2,44.461,-633.98,-491.48,77.057,-100,-259.69,0,-264.08,0
582.57,42.33,-633.98,-491.48,77.057,-100,-259.69,100,-262.22,0
594.96,39.26,-633.98,-491.48,77.057,-100,-259.69,200,-260.91,0
623.35,34.67,-633.98,-491.48,77.057,-100,-259.69,300,-260.27,0
723.03,50.527,-633.98,-491.48,77.057,-100,-182.5,-300,-267.21,0
676.29,49.892,-633.98,-491.48,77.057,-100,-182.5,-200,-263.41,0
641.84,49.064,-633.98,-491.48,77.057,-100,-182.5,-100,-260.18,0
621.73,47.941,-633.98,-491.48,77.057,-100,-182.5,0,-257.52,0
617.36,46.335,-633.98,-491.48,77.057,-100,-182.5,100,-255.4,0
629.06,43.85,-633.98,-491.48,77.057,-100,-182.5,200,-253.78,0
655.98,39.522,-633.98,-491.48,77.057,-100,-182.5,300,-252.63,0
799.56,47.202,-633.98,-491.48,77.057,0,-800,-300,-689.96,1
757.55,47.551,-633.98,-491.48,77.057,0,-800,-200,-722.45,1
726.96,48.197,-633.98,-491.48,77.057,0,-800,-100,-773.88,1
709.26,49.261,-633.98,-491.48,77.057,0,-800,0,-857.92,1
705.44,50.884,-633.98,-491.48,77.057,0,-800,100,-1002.9,1
715.7,53.219,-633.98,-491.48,77.057,0,-800,200,-1271.7,1
739.47,56.381,-633.98,-491.48,77.057,0,-800,300,-1782.3,1
773.06,47.327,-633.98,-491.48,77.057,0,-722.81,-300,-576.7,0
729.53,47.501,-633.98,-491.48,77.057,0,-722.81,-200,-594.16,1
697.71,47.942,-633.98,-491.48,77.057,0,-722.81,-100,-623.45,1
679.25,48.785,-633.98,-491.48,77.057,0,-722.81,0,-673.09,1
675.26,50.208,-633.98,-491.48,77.057,0,-722.81,100,-761.09,1
685.98,52.423,-633.98,-491.48,77.057,0,-722.81,200,-929.96,1
710.74,55.629,-633.98,-491.48,77.057,0,-722.81,300,-1284.2,1
753.57,47.671,-633.98,-491.48,77.057,0,-645.63,-300,-489.38,0
708.84,47.672,-633.98,-491.48,77.057,0,-645.63,-200,-496.78,0
676.05,47.892,-633.98,-491.48,77.057,0,-645.63,-100,-511.19,1
656.99,48.471,-633.98,-491.48,77.057,0,-645.63,0,-537.54,1
652.86,49.619,-633.98,-491.48,77.057,0,-645.63,100,-586.35,1
663.94,51.618,-633.98,-491.48,77.057,0,-645.63,200,-683.37,1
689.49,54.786,-633.98,-491.48,77.057,0,-645.63,300,-900.9,0
741.64,48.281,-633.98,-491.48,77.057,0,-568.44,-300,-423.3,0
696.14,48.129,-633.98,-491.48,77.057,0,-568.44,-200,-424.35,0
662.73,48.132,-633.98,-491.48,77.057,0,-568.44,-100,-429.37,0
643.27,48.422,-633.98,-491.48,77.057,0,-568.44,0,-440.92,1
639.05,49.222,-633.98,-491.48,77.057,0,-568.44,100,-464.62,1
650.36,50.882,-633.98,-491.48,77.057,0,-568.44,200,-514.39,0
676.43,53.877,-633.98,-491.48,77.057,0,-568.44,300,-632.21,0
737.64,49.202,-633.98,-491.48,77.057,0,-491.25,-300,-374.41,0
691.88,48.941,-633.98,-491.48,77.057,0,-491.25,-200,-371.76,0
658.24,48.764,-633.98,-491.48,77.057,0,-491.25,-100,-371.26,0
638.65,48.777,-633.98,-491.48,77.057,0,-491.25,0,-374.14,0
634.4,49.185,-633.98,-491.48,77.057,0,-491.25,100,-383.02,0
645.79,50.372,-633.98,-491.48,77.057,0,-491.25,200,-404.51,0
672.04,52.984,-633.98,-491.48,77.057,0,-491.25,300,-459.29,0
741.69,50.467,-633.98,-491.48,77.057,0,-414.06,-300,-339.39,0
696.2,50.166,-633.98,-491.48,77.057,0,-414.06,-200,-334.74,0
662.78,49.886,-633.98,-491.48,77.057,0,-414.06,-100,-331.32,0
643.32,49.694,-633.98,-491.48,77.057,0,-414.06,0,-329.6,0
639.1,49.742,-633.98,-491.48,77.057,0,-414.06,100,-330.62,0
650.42,50.375,-633.98,-491.48,77.057,0,-414.06,200,-337.01,0
676.48,52.34,-633.98,-491.48,77.057,0,-414.06,300,-357.18,0
753.66,52.094,-633.98,-491.48,77.057,0,-336.88,-300,-315.61,0
708.94,51.843,-633.98,-491.48,77.057,0,-336.88,-200,-309.98,0
676.16,51.578,-633.98,-491.48,77.057,0,-336.88,-100,-305.16,0
657.1,51.328,-633.98,-491.48,77.057,0,-336.88,0,-301.29,0
652.97,51.172,-633.98,-491.48,77.057,0,-336.88,100,-298.68,0
664.04,51.341,-633.98,-491.48,77.057,0,-336.88,200,-298.15,0
689.59,52.487,-633.98,-491.48,77.057,0,-336.88,300,-302.31,0
773.2,54.073,-633.98,-491.48,77.057,0,-259.69,-300,-301.2,0
729.67,53.974,-633.98,-491.48,77.057,0,-259.69,-200,-295.05,0
697.86,53.869,-633.98,-491.48,77.057,0,-259.69,-100,-289.58,0
679.41,53.77,-633.98,-491.48,77.057,0,-259.69,0,-284.81,0
675.42,53.712,-633.98,-491.48,77.057,0,-259.69,100,-280.79,0
686.13,53.81,-633.98,-491.48,77.057,0,-259.69,200,-277.67,0
710.89,54.458,-633.98,-491.48,77.057,0,-259.69,300,-275.99,0
799.73,56.372,-633.98,-491.48,77.057,0,-182.5,-300,-294.99,0
757.74,56.522,-633.98,-491.48,77.057,0,-182.5,-200,-288.47,0
727.15,56.722,-633.98,-491.48,77.057,0,-182.5,-100,-282.6,0
709.47,57.002,-633.98,-491.48,77.057,0,-182.5,0,-277.38,0
705.64,57.42,-633.98,-491.48,77.057,0,-182.5,100,-272.8,0
715.9,58.108,-633.98,-491.48,77.057,0,-182.5,200,-268.87,0
739.67,59.422,-633.98,-491.48,77.057,0,-182.5,300,-265.63,0
